# Wavelength_[A] F_lambda_[norm]
1150.000 2.55588
1155.000 2.85923
1160.000 1.99775
1165.000 0.00000
1170.000 0.07819
1175.000 0.00000
1180.000 0.00000
1185.000 0.00000
1190.000 0.00000
1195.000 0.00000
1200.000 0.01412
1205.000 0.14279
1210.000 0.31354
1215.000 0.43561
1220.000 0.53799
1225.000 0.46238
1230.000 0.48673
1235.000 0.50995
1240.000 0.46131
1245.000 0.63245
1250.000 1.26253
1255.000 1.51190
1260.000 1.44837
1265.000 2.30095
1270.000 4.03675
1275.000 4.77293
1280.000 6.53843
1285.000 7.64856
1290.000 8.20602
1295.000 9.17641
1300.000 7.99215
1305.000 6.54532
1310.000 7.85738
1315.000 11.46720
1320.000 12.89590
1325.000 12.89376
1330.000 12.19100
1335.000 12.95611
1340.000 15.87899
1345.000 16.14934
1350.000 14.64048
1355.000 13.61427
1360.000 14.02294
1365.000 14.14542
1370.000 14.26831
1375.000 15.12642
1380.000 15.03570
1385.000 15.52581
1390.000 15.82468
1395.000 15.16965
1400.000 15.47727
1405.000 16.23106
1410.000 15.99722
1415.000 16.66121
1420.000 17.84685
1425.000 18.34469
1430.000 17.15607
1435.000 16.68849
1440.000 18.41978
1445.000 19.78320
1450.000 20.90620
1455.000 20.87695
1460.000 20.40975
1465.000 19.20755
1470.000 18.50088
1475.000 18.73948
1480.000 19.51064
1485.000 21.37433
1490.000 22.88950
1495.000 23.17677
1500.000 23.68861
1505.000 21.77574
1510.000 19.30382
1515.000 20.07636
1520.000 21.98685
1525.000 20.46841
1530.000 19.82903
1535.000 20.49826
1540.000 22.19865
1545.000 22.54755
1550.000 21.95583
1555.000 21.14442
1560.000 20.66621
1565.000 21.65676
1570.000 21.28430
1575.000 21.53566
1580.000 23.21160
1585.000 22.98225
1590.000 22.56212
1595.000 22.28366
1600.000 22.78557
1605.000 22.14840
1610.000 22.02509
1615.000 22.08066
1620.000 21.72804
1625.000 21.77874
1630.000 22.01565
1635.000 21.59383
1640.000 21.04628
1645.000 21.48458
1650.000 20.48097
1655.000 18.38170
1660.000 19.36070
1665.000 20.66485
1670.000 18.76312
1675.000 19.84548
1680.000 21.51321
1685.000 21.56896
1690.000 21.36608
1695.000 21.12074
1700.000 21.02572
1705.000 20.76801
1710.000 21.06720
1715.000 20.95275
1720.000 20.23738
1725.000 20.31877
1730.000 21.16349
1735.000 21.09198
1740.000 21.38853
1745.000 21.89722
1750.000 22.46124
1755.000 23.21510
1760.000 21.85855
1765.000 20.83419
1770.000 21.76748
1775.000 22.76208
1780.000 22.66717
1785.000 20.07367
1790.000 17.44487
1795.000 22.00136
1800.000 23.79983
1805.000 22.81456
1810.000 22.65018
1815.000 22.84471
1820.000 23.01243
1825.000 22.71425
1830.000 22.07952
1835.000 21.73524
1840.000 20.73277
1845.000 20.39237
1850.000 20.99487
1855.000 21.00712
1860.000 21.12513
1865.000 21.41998
1870.000 22.01673
1875.000 21.93064
1880.000 21.92783
1885.000 21.80260
1890.000 21.31141
1895.000 20.62310
1900.000 20.14449
1905.000 20.40722
1910.000 20.44861
1915.000 20.38218
1920.000 20.40362
1925.000 20.40867
1930.000 20.74187
1935.000 21.01242
1940.000 21.24220
1945.000 21.28575
1950.000 21.33012
1955.000 21.33764
1960.000 21.27444
1965.000 21.01350
1970.000 21.89507
1975.000 22.67601
1980.000 22.17798
1985.000 22.15900
1990.000 20.56606
1995.000 18.93236
2000.000 19.91211
2005.000 20.35024
2010.000 19.81122
2015.000 19.83357
2020.000 19.76746
2025.000 19.47941
2030.000 20.02226
2035.000 19.61590
2040.000 19.00959
2045.000 19.48774
2050.000 19.80239
2055.000 19.90688
2060.000 19.72242
2065.000 19.11080
2070.000 19.36837
2075.000 20.58385
2080.000 21.46793
2085.000 21.66289
2090.000 21.31523
2095.000 20.30980
2100.000 19.35862
2105.000 19.30118
2110.000 19.86217
2115.000 19.57275
2120.000 19.09654
2125.000 20.27241
2130.000 19.95514
2135.000 18.44229
2140.000 17.29350
2145.000 17.85846
2150.000 19.11462
2155.000 19.59941
2160.000 20.06892
2165.000 18.35776
2170.000 17.44521
2175.000 16.58234
2180.000 16.63577
2185.000 18.11856
2190.000 19.01987
2195.000 19.38489
2200.000 19.65391
2205.000 18.49199
2210.000 17.14359
2215.000 16.24813
2220.000 16.07336
2225.000 16.10122
2230.000 16.43210
2235.000 16.09203
2240.000 16.56069
2245.000 15.71727
2250.000 16.33593
2255.000 16.37692
2260.000 16.14858
2265.000 16.07450
2270.000 16.29652
2275.000 16.25126
2280.000 16.41971
2285.000 16.57286
2290.000 17.32012
2295.000 17.69775
2300.000 17.25590
2305.000 17.06483
2310.000 17.35672
2315.000 17.18385
2320.000 15.73187
2325.000 15.67887
2330.000 16.35283
2335.000 16.09699
2340.000 15.53449
2345.000 15.22119
2350.000 14.97095
2355.000 14.46261
2360.000 14.63235
2365.000 14.38033
2370.000 14.52490
2375.000 14.29060
2380.000 15.20838
2385.000 14.22818
2390.000 12.62431
2395.000 12.47448
2400.000 13.51112
2405.000 13.29471
2410.000 12.34719
2415.000 13.00159
2420.000 13.65358
2425.000 14.19430
2430.000 14.96771
2435.000 14.31195
2440.000 13.82134
2445.000 14.63717
2450.000 15.28080
2455.000 15.43647
2460.000 15.50552
2465.000 15.14719
2470.000 14.27421
2475.000 13.93018
2480.000 14.11662
2485.000 13.48805
2490.000 12.85496
2495.000 12.52768
2500.000 14.73990
2505.000 14.52448
2510.000 13.94625
2515.000 14.51152
2520.000 13.83267
2525.000 13.04226
2530.000 12.89979
2535.000 13.86935
2540.000 13.93907
2545.000 13.23823
2550.000 13.47541
2555.000 13.86927
2560.000 13.98540
2565.000 14.29318
2570.000 15.10818
2575.000 14.61538
2580.000 11.16095
2585.000 10.77742
2590.000 13.37278
2595.000 14.64600
2600.000 14.63443
2605.000 14.31665
2610.000 14.42407
2615.000 14.27939
2620.000 14.74939
2625.000 14.62342
2630.000 14.30464
2635.000 14.90069
2640.000 14.97244
2645.000 15.47112
2650.000 16.09211
2655.000 16.18499
2660.000 15.58292
2665.000 14.98259
2670.000 14.22989
2675.000 14.17954
2680.000 14.98431
2685.000 15.33503
2690.000 14.84617
2695.000 14.02351
2700.000 14.28043
2705.000 14.82495
2710.000 14.03009
2715.000 13.95333
2720.000 13.96663
2725.000 13.75538
2730.000 14.01804
2735.000 14.55665
2740.000 14.49947
2745.000 13.78985
2750.000 13.49185
2755.000 12.95710
2760.000 13.20035
2765.000 13.80723
2770.000 13.91588
2775.000 14.42863
2780.000 15.28859
2785.000 14.61654
2790.000 14.24833
2795.000 13.49707
2800.000 12.01734
2805.000 11.91257
2810.000 12.94430
2815.000 14.44980
2820.000 15.02527
2825.000 14.57403
2830.000 14.10034
2835.000 14.38763
2840.000 14.77867
2845.000 14.56665
2850.000 14.03774
2855.000 13.51484
2860.000 13.49914
2865.000 13.95146
2870.000 14.11161
2875.000 13.93552
2880.000 13.80253
2885.000 14.11116
2890.000 14.42216
2895.000 14.16611
2900.000 14.00162
2905.000 14.29749
2910.000 15.13912
2915.000 15.22247
2920.000 15.27214
2925.000 14.63720
2930.000 14.44311
2935.000 14.68918
2940.000 14.66085
2945.000 15.02814
2950.000 14.38028
2955.000 14.97990
2960.000 15.40379
2965.000 15.06107
2970.000 14.92890
2975.000 15.19745
2980.000 15.08104
2985.000 14.83290
2990.000 15.18613
2995.000 15.04964
3000.000 15.13091
3005.000 14.66388
3010.000 14.99667
3015.000 14.66056
3020.000 14.08663
3025.000 14.26494
3030.000 14.34275
3035.000 14.38434
3040.000 14.87304
3045.000 14.78804
3050.000 14.57752
3055.000 14.57465
3060.000 14.14646
3065.000 13.70328
3070.000 13.45090
3075.000 13.67610
3080.000 14.70040
3085.000 14.71829
3090.000 14.25602
3095.000 14.45619
3100.000 14.21915
3105.000 13.82173
3110.000 13.40833
3115.000 13.30600
3120.000 13.57070
3125.000 14.24676
3130.000 14.82364
3135.000 14.17121
3140.000 13.86095
3145.000 14.54124
3150.000 14.60131
3155.000 14.40051
3160.000 14.11168
3165.000 14.41738
3170.000 14.80424
3175.000 14.70270
3180.000 14.04539
3185.000 14.26893
3190.000 15.09374
3195.000 15.06919
3200.000 14.42266
3205.000 14.44394
3210.000 14.46768
3215.000 14.22861
3220.000 13.91892
3225.000 13.78071
3230.000 13.79843
3235.000 13.88210
3240.000 13.90175
3245.000 13.78482
3250.000 13.72827
3255.000 13.90062
3260.000 14.08675
3265.000 14.06296
3270.000 13.95458
3275.000 13.91249
3280.000 13.84042
3285.000 13.66782
3290.000 13.67382
3295.000 14.05424
3300.000 14.32176
3305.000 14.03523
3310.000 13.62114
3315.000 13.55951
3320.000 13.67639
3325.000 13.71097
3330.000 13.70861
3335.000 13.75509
3340.000 13.79171
3345.000 13.75274
3350.000 13.68888
3355.000 13.65207
3360.000 13.58295
3365.000 13.43116
3370.000 13.29336
3375.000 13.25905
3380.000 13.24206
3385.000 13.15550
3390.000 13.08523
3395.000 13.13800
3400.000 13.33100
3405.000 13.62064
3410.000 13.80910
3415.000 13.74159
3420.000 13.58936
3425.000 13.53042
3430.000 13.44370
3435.000 13.20952
3440.000 13.01326
3445.000 13.03354
3450.000 13.11717
3455.000 13.09540
3460.000 13.06905
3465.000 13.14607
3470.000 13.19336
3475.000 13.08393
3480.000 12.95627
3485.000 12.94937
3490.000 12.93843
3495.000 12.80681
3500.000 12.73422
3505.000 12.88159
3510.000 12.97711
3515.000 12.92728
3520.000 12.88832
3525.000 12.90852
3530.000 13.02024
3535.000 13.13475
3540.000 13.14680
3545.000 13.05895
3550.000 12.97096
3555.000 12.93708
3560.000 12.89817
3565.000 12.74163
3570.000 12.57890
3575.000 12.55998
3580.000 12.55146
3585.000 12.47938
3590.000 12.50288
3595.000 12.59386
3600.000 12.61528
3605.000 12.60292
3610.000 12.41859
3615.000 12.38973
3620.000 12.45810
3625.000 12.60773
3630.000 12.64325
3635.000 12.67610
3640.000 12.70495
3645.000 12.66634
3650.000 12.76563
3655.000 12.93377
3660.000 12.96070
3665.000 12.93288
3670.000 12.90269
3675.000 12.77496
3680.000 12.62431
3685.000 12.59707
3690.000 12.71768
3695.000 12.88241
3700.000 12.94219
3705.000 13.25661
3710.000 13.52926
3715.000 14.15355
3720.000 14.28638
3725.000 15.00269
3730.000 15.07052
3735.000 14.38807
3740.000 16.21212
3745.000 15.77785
3750.000 14.26100
3755.000 16.54384
3760.000 18.40096
3765.000 16.93015
3770.000 14.88647
3775.000 17.64629
3780.000 21.76089
3785.000 22.91294
3790.000 19.98916
3795.000 15.92884
3800.000 16.18785
3805.000 21.26563
3810.000 25.43228
3815.000 26.81475
3820.000 25.99253
3825.000 22.58248
3830.000 17.42770
3835.000 14.41147
3840.000 18.11822
3845.000 23.41788
3850.000 27.66784
3855.000 30.00423
3860.000 31.24943
3865.000 31.51271
3870.000 29.96778
3875.000 26.61474
3880.000 21.96060
3885.000 16.47701
3890.000 15.00146
3895.000 19.43099
3900.000 24.71054
3905.000 28.34855
3910.000 31.10302
3915.000 32.53841
3920.000 33.25606
3925.000 32.67807
3930.000 29.33957
3935.000 28.91623
3940.000 31.11496
3945.000 31.10889
3950.000 29.14766
3955.000 26.39815
3960.000 21.92657
3965.000 16.07843
3970.000 13.86172
3975.000 17.93160
3980.000 23.19749
3985.000 27.37883
3990.000 30.31466
3995.000 31.95449
4000.000 32.91738
4005.000 33.24943
4010.000 33.64623
4015.000 33.78798
4020.000 33.83742
4025.000 33.55197
4030.000 33.24346
4035.000 33.22928
4040.000 33.15413
4045.000 33.03479
4050.000 33.13970
4055.000 32.87579
4060.000 32.45525
4065.000 31.73907
4070.000 30.69182
4075.000 29.49153
4080.000 28.19661
4085.000 26.31895
4090.000 23.09208
4095.000 18.67269
4100.000 15.09163
4105.000 15.66486
4110.000 19.18141
4115.000 22.79934
4120.000 25.75295
4125.000 27.68281
4130.000 28.97096
4135.000 30.25242
4140.000 31.14721
4145.000 31.63523
4150.000 31.89660
4155.000 31.91420
4160.000 31.90987
4165.000 31.83155
4170.000 31.30223
4175.000 30.87472
4180.000 30.67317
4185.000 30.67824
4190.000 30.92617
4195.000 31.06016
4200.000 31.09754
4205.000 31.59853
4210.000 31.74143
4215.000 31.34667
4220.000 30.96462
4225.000 30.48121
4230.000 30.28186
4235.000 30.28574
4240.000 30.23456
4245.000 29.88245
4250.000 29.72842
4255.000 29.74775
4260.000 29.66474
4265.000 29.67375
4270.000 29.48957
4275.000 29.77312
4280.000 30.04523
4285.000 29.90222
4290.000 29.29493
4295.000 28.65682
4300.000 27.70829
4305.000 27.17430
4310.000 26.87397
4315.000 26.46353
4320.000 25.45605
4325.000 23.23408
4330.000 20.07571
4335.000 16.15678
4340.000 13.66482
4345.000 14.82181
4350.000 17.85336
4355.000 21.19093
4360.000 23.81647
4365.000 25.66035
4370.000 26.56793
4375.000 26.93299
4380.000 26.99992
4385.000 26.92993
4390.000 27.11827
4395.000 27.22132
4400.000 27.21293
4405.000 27.30718
4410.000 27.31628
4415.000 27.05650
4420.000 27.13760
4425.000 27.22179
4430.000 26.95492
4435.000 26.83889
4440.000 26.74147
4445.000 26.80152
4450.000 26.90172
4455.000 26.77622
4460.000 26.52851
4465.000 26.26231
4470.000 26.04492
4475.000 26.00060
4480.000 25.63374
4485.000 25.75413
4490.000 25.95736
4495.000 26.09013
4500.000 26.14012
4505.000 26.16848
4510.000 26.19884
4515.000 25.99156
4520.000 25.68387
4525.000 25.45196
4530.000 25.26031
4535.000 25.34739
4540.000 25.35177
4545.000 24.91307
4550.000 24.57596
4555.000 24.67359
4560.000 24.80702
4565.000 24.72844
4570.000 24.53821
4575.000 24.45959
4580.000 24.21315
4585.000 23.94097
4590.000 24.05593
4595.000 24.20714
4600.000 24.20001
4605.000 24.29209
4610.000 24.21887
4615.000 24.02222
4620.000 24.02728
4625.000 23.85227
4630.000 23.66668
4635.000 23.63025
4640.000 23.64824
4645.000 23.59507
4650.000 23.63999
4655.000 23.61072
4660.000 23.54581
4665.000 23.33064
4670.000 23.11860
4675.000 23.01984
4680.000 23.07055
4685.000 23.26727
4690.000 23.12781
4695.000 23.08585
4700.000 23.03234
4705.000 23.01853
4710.000 22.86260
4715.000 22.53658
4720.000 22.37443
4725.000 22.39319
4730.000 22.26497
4735.000 22.06394
4740.000 22.06067
4745.000 22.13390
4750.000 22.12867
4755.000 21.99310
4760.000 21.70674
4765.000 21.60501
4770.000 21.58389
4775.000 21.63394
4780.000 21.57755
4785.000 21.54875
4790.000 21.60929
4795.000 21.55291
4800.000 21.19598
4805.000 20.95330
4810.000 20.74873
4815.000 20.59906
4820.000 20.34674
4825.000 19.88962
4830.000 19.44775
4835.000 18.91984
4840.000 18.18003
4845.000 16.95749
4850.000 14.99554
4855.000 12.32376
4860.000 10.40981
4865.000 11.24782
4870.000 13.34789
4875.000 15.26508
4880.000 16.86129
4885.000 17.92215
4890.000 18.65884
4895.000 19.13141
4900.000 19.27464
4905.000 19.42631
4910.000 19.55126
4915.000 19.50999
4920.000 19.25660
4925.000 19.28381
4930.000 19.41687
4935.000 19.34817
4940.000 19.53566
4945.000 19.73098
4950.000 19.63716
4955.000 19.41756
4960.000 19.50511
4965.000 19.59603
4970.000 19.59469
4975.000 19.59934
4980.000 19.32120
4985.000 19.10128
4990.000 19.15623
4995.000 19.01021
5000.000 18.79940
5005.000 18.80834
5010.000 18.76950
5015.000 18.49953
5020.000 18.44634
5025.000 18.67891
5030.000 18.65860
5035.000 18.62791
5040.000 18.56828
5045.000 18.56991
5050.000 18.44502
5055.000 18.40215
5060.000 18.50491
5065.000 18.39222
5070.000 18.40593
5075.000 18.27885
5080.000 18.19911
5085.000 18.32920
5090.000 18.36896
5095.000 18.21164
5100.000 18.09218
5105.000 18.15909
5110.000 18.18031
5115.000 18.29495
5120.000 18.17941
5125.000 17.97885
5130.000 17.94192
5135.000 17.87449
5140.000 17.76134
5145.000 17.72042
5150.000 17.61445
5155.000 17.47244
5160.000 17.35592
5165.000 16.93126
5170.000 16.70833
5175.000 16.97929
5180.000 16.99353
5185.000 16.85575
5190.000 16.92467
5195.000 16.92638
5200.000 16.77265
5205.000 16.61736
5210.000 16.69227
5215.000 16.82650
5220.000 16.89661
5225.000 16.73045
5230.000 16.63345
5235.000 16.61090
5240.000 16.56775
5245.000 16.56862
5250.000 16.50536
5255.000 16.54475
5260.000 16.39052
5265.000 16.00644
5270.000 15.82676
5275.000 15.82914
5280.000 15.91771
5285.000 16.08927
5290.000 16.28067
5295.000 16.32151
5300.000 16.20581
5305.000 16.04656
5310.000 15.86567
5315.000 15.76586
5320.000 15.80771
5325.000 15.69331
5330.000 15.60497
5335.000 15.60799
5340.000 15.65569
5345.000 15.72506
5350.000 15.85637
5355.000 15.89553
5360.000 15.66576
5365.000 15.42618
5370.000 15.30573
5375.000 15.36854
5380.000 15.42151
5385.000 15.45871
5390.000 15.45279
5395.000 15.29219
5400.000 15.11863
5405.000 15.01212
5410.000 15.03877
5415.000 15.08490
5420.000 15.06791
5425.000 14.95530
5430.000 14.85430
5435.000 14.87342
5440.000 14.88332
5445.000 14.88768
5450.000 14.89248
5455.000 14.88616
5460.000 14.87759
5465.000 14.82219
5470.000 14.72928
5475.000 14.66036
5480.000 14.66249
5485.000 14.68307
5490.000 14.58309
5495.000 14.53602
5500.000 14.50545
5505.000 14.38543
5510.000 14.27990
5515.000 14.35748
5520.000 14.35834
5525.000 14.25892
5530.000 14.17866
5535.000 14.19342
5540.000 14.13562
5545.000 14.10868
5550.000 14.21808
5555.000 14.24271
5560.000 14.19419
5565.000 14.07853
5570.000 14.00287
5575.000 13.99378
5580.000 13.97330
5585.000 13.85720
5590.000 13.78562
5595.000 13.66188
5600.000 13.63767
5605.000 13.65815
5610.000 13.63969
5615.000 13.51901
5620.000 13.51958
5625.000 13.56041
5630.000 13.55530
5635.000 13.56918
5640.000 13.55856
5645.000 13.49494
5650.000 13.40150
5655.000 13.27764
5660.000 13.13892
5665.000 13.15765
5670.000 13.21895
5675.000 13.23127
5680.000 13.11980
5685.000 13.01544
5690.000 13.03060
5695.000 12.97580
5700.000 12.92507
5705.000 12.91969
5710.000 12.97962
5715.000 13.03631
5720.000 12.99021
5725.000 12.94360
5730.000 12.88688
5735.000 12.83214
5740.000 12.76122
5745.000 12.67586
5750.000 12.61206
5755.000 12.60321
5760.000 12.68783
5765.000 12.65128
5770.000 12.53148
5775.000 12.42137
5780.000 12.30209
5785.000 12.31570
5790.000 12.32369
5795.000 12.21751
5800.000 12.20336
5805.000 12.25213
5810.000 12.21264
5815.000 12.19111
5820.000 12.24186
5825.000 12.29140
5830.000 12.33722
5835.000 12.28609
5840.000 12.21061
5845.000 12.14752
5850.000 12.14714
5855.000 12.09735
5860.000 12.15263
5865.000 12.11707
5870.000 12.03743
5875.000 11.94195
5880.000 11.82052
5885.000 11.57360
5890.000 11.36916
5895.000 11.38588
5900.000 11.63997
5905.000 11.68259
5910.000 11.62515
5915.000 11.62470
5920.000 11.61239
5925.000 11.54826
5930.000 11.52718
5935.000 11.52417
5940.000 11.45018
5945.000 11.35090
5950.000 11.31783
5955.000 11.31241
5960.000 11.28996
5965.000 11.32032
5970.000 11.29076
5975.000 11.24476
5980.000 11.21997
5985.000 11.20883
5990.000 11.14393
5995.000 11.17460
6000.000 11.17409
6005.000 11.12476
6010.000 11.08729
6015.000 11.05241
6020.000 11.00281
6025.000 10.98428
6030.000 10.95939
6035.000 10.94787
6040.000 10.90070
6045.000 10.91585
6050.000 10.88126
6055.000 10.84625
6060.000 10.83610
6065.000 10.80275
6070.000 10.80601
6075.000 10.73754
6080.000 10.65209
6085.000 10.61802
6090.000 10.61969
6095.000 10.61100
6100.000 10.58510
6105.000 10.52865
6110.000 10.52372
6115.000 10.53904
6120.000 10.50584
6125.000 10.48711
6130.000 10.50134
6135.000 10.46690
6140.000 10.38807
6145.000 10.29832
6150.000 10.22577
6155.000 10.15234
6160.000 10.12649
6165.000 10.19859
6170.000 10.18793
6175.000 10.24983
6180.000 10.22160
6185.000 10.16400
6190.000 10.18449
6195.000 10.26668
6200.000 10.21524
6205.000 10.12499
6210.000 10.07331
6215.000 10.03160
6220.000 9.96392
6225.000 9.90252
6230.000 9.85818
6235.000 9.84490
6240.000 9.82876
6245.000 9.81806
6250.000 9.82813
6255.000 9.86662
6260.000 9.85489
6265.000 9.76887
6270.000 9.66272
6275.000 9.51376
6280.000 9.35515
6285.000 9.49098
6290.000 9.56960
6295.000 9.56836
6300.000 9.50642
6305.000 9.47469
6310.000 9.45567
6315.000 9.41728
6320.000 9.44639
6325.000 9.49655
6330.000 9.46231
6335.000 9.44156
6340.000 9.41184
6345.000 9.31676
6350.000 9.29181
6355.000 9.35672
6360.000 9.37502
6365.000 9.34460
6370.000 9.28035
6375.000 9.29073
6380.000 9.29845
6385.000 9.24870
6390.000 9.21022
6395.000 9.21983
6400.000 9.23617
6405.000 9.19945
6410.000 9.14400
6415.000 9.12063
6420.000 9.08947
6425.000 9.11782
6430.000 9.09651
6435.000 9.09914
6440.000 9.10846
6445.000 9.02713
6450.000 8.96909
6455.000 8.90887
6460.000 8.89892
6465.000 8.91212
6470.000 8.88044
6475.000 8.80876
6480.000 8.76562
6485.000 8.76742
6490.000 8.69507
6495.000 8.62352
6500.000 8.67995
6505.000 8.69704
6510.000 8.61221
6515.000 8.49836
6520.000 8.43387
6525.000 8.35009
6530.000 8.23763
6535.000 8.12805
6540.000 7.86690
6545.000 7.46110
6550.000 6.95842
6555.000 6.26681
6560.000 5.44418
6565.000 5.39289
6570.000 6.19658
6575.000 6.89955
6580.000 7.40734
6585.000 7.74072
6590.000 7.98694
6595.000 8.11164
6600.000 8.17834
6605.000 8.19758
6610.000 8.23354
6615.000 8.29367
6620.000 8.28006
6625.000 8.30873
6630.000 8.27643
6635.000 8.25450
6640.000 8.27996
6645.000 8.26709
6650.000 8.24938
6655.000 8.20656
6660.000 8.18856
6665.000 8.11769
6670.000 8.11183
6675.000 8.07445
6680.000 8.08609
6685.000 8.11489
6690.000 8.11818
6695.000 8.10003
6700.000 8.05598
6705.000 8.04659
6710.000 8.00350
6715.000 7.95469
6720.000 7.96025
6725.000 7.98276
