# Wavelength_[A] F_lambda_[norm]
1150.000 0.27201
1155.000 0.23635
1160.000 0.19348
1165.000 0.01259
1170.000 0.00000
1175.000 0.01463
1180.000 0.00000
1185.000 0.00000
1190.000 0.00000
1195.000 0.00000
1200.000 0.03227
1205.000 0.08098
1210.000 0.26982
1215.000 0.43424
1220.000 0.25853
1225.000 0.05356
1230.000 0.01672
1235.000 0.01695
1240.000 0.01876
1245.000 0.01245
1250.000 0.02117
1255.000 0.01752
1260.000 0.01379
1265.000 0.00278
1270.000 0.00728
1275.000 0.00420
1280.000 0.01008
1285.000 0.00173
1290.000 0.00000
1295.000 0.00000
1300.000 0.00000
1305.000 0.00718
1310.000 0.00440
1315.000 0.00143
1320.000 0.00280
1325.000 0.00000
1330.000 0.00000
1335.000 0.01851
1340.000 0.01460
1345.000 0.00793
1350.000 0.00828
1355.000 0.01444
1360.000 0.01547
1365.000 0.00042
1370.000 0.00066
1375.000 0.00726
1380.000 0.01272
1385.000 0.00184
1390.000 0.00075
1395.000 0.00943
1400.000 0.00000
1405.000 0.00000
1410.000 0.00872
1415.000 0.00628
1420.000 0.01097
1425.000 0.02164
1430.000 0.01580
1435.000 0.01824
1440.000 0.01794
1445.000 0.01381
1450.000 0.01244
1455.000 0.02058
1460.000 0.02101
1465.000 0.01074
1470.000 0.01906
1475.000 0.02415
1480.000 0.02619
1485.000 0.03742
1490.000 0.02565
1495.000 0.02950
1500.000 0.03832
1505.000 0.03851
1510.000 0.03865
1515.000 0.02956
1520.000 0.02821
1525.000 0.03465
1530.000 0.03022
1535.000 0.04452
1540.000 0.05252
1545.000 0.05100
1550.000 0.06381
1555.000 0.06208
1560.000 0.05368
1565.000 0.06303
1570.000 0.05410
1575.000 0.05377
1580.000 0.06464
1585.000 0.06776
1590.000 0.06317
1595.000 0.06206
1600.000 0.07534
1605.000 0.09933
1610.000 0.12674
1615.000 0.08358
1620.000 0.07673
1625.000 0.08415
1630.000 0.09087
1635.000 0.09537
1640.000 0.11099
1645.000 0.11720
1650.000 0.11519
1655.000 0.09932
1660.000 0.10195
1665.000 0.14429
1670.000 0.13039
1675.000 0.15535
1680.000 0.19395
1685.000 0.20534
1690.000 0.25355
1695.000 0.30573
1700.000 0.41281
1705.000 0.55737
1710.000 0.78219
1715.000 0.96938
1720.000 1.00556
1725.000 0.97350
1730.000 1.16788
1735.000 1.18251
1740.000 1.16639
1745.000 1.26341
1750.000 1.47709
1755.000 1.65036
1760.000 1.56869
1765.000 1.44506
1770.000 1.67503
1775.000 2.02608
1780.000 2.19031
1785.000 2.04738
1790.000 2.05551
1795.000 2.38964
1800.000 2.45964
1805.000 2.14868
1810.000 2.00652
1815.000 2.20630
1820.000 2.27625
1825.000 2.36146
1830.000 2.23928
1835.000 2.13131
1840.000 1.88239
1845.000 1.67522
1850.000 1.62018
1855.000 1.73197
1860.000 1.87423
1865.000 2.03801
1870.000 2.22161
1875.000 2.24520
1880.000 2.31899
1885.000 2.43435
1890.000 2.41233
1895.000 2.32001
1900.000 2.17356
1905.000 2.25354
1910.000 2.30130
1915.000 2.44820
1920.000 2.53144
1925.000 2.28821
1930.000 1.84897
1935.000 1.78571
1940.000 2.43196
1945.000 2.93687
1950.000 3.00699
1955.000 2.93553
1960.000 2.76610
1965.000 2.75185
1970.000 2.75085
1975.000 3.09442
1980.000 2.99500
1985.000 3.02661
1990.000 2.77198
1995.000 2.39908
2000.000 2.50624
2005.000 2.59025
2010.000 2.45230
2015.000 2.59822
2020.000 2.61843
2025.000 2.72922
2030.000 2.72693
2035.000 2.85967
2040.000 2.91626
2045.000 2.89060
2050.000 3.21919
2055.000 3.41418
2060.000 3.06943
2065.000 3.00349
2070.000 3.26258
2075.000 3.44205
2080.000 3.81224
2085.000 4.00838
2090.000 3.91718
2095.000 3.65792
2100.000 3.55428
2105.000 3.53891
2110.000 3.45283
2115.000 3.43890
2120.000 3.36783
2125.000 3.72636
2130.000 3.87895
2135.000 3.16010
2140.000 2.68625
2145.000 2.90889
2150.000 3.21911
2155.000 3.37805
2160.000 3.43178
2165.000 3.15688
2170.000 3.06081
2175.000 2.82564
2180.000 2.84505
2185.000 3.14314
2190.000 3.51028
2195.000 3.74626
2200.000 3.95192
2205.000 4.12093
2210.000 3.74940
2215.000 3.26266
2220.000 3.02872
2225.000 2.99457
2230.000 3.08622
2235.000 3.19161
2240.000 3.56668
2245.000 3.34930
2250.000 3.01184
2255.000 2.95689
2260.000 2.98130
2265.000 2.88789
2270.000 2.83060
2275.000 2.70965
2280.000 2.77810
2285.000 2.96271
2290.000 3.41906
2295.000 3.38196
2300.000 3.05438
2305.000 2.76374
2310.000 2.88581
2315.000 3.09770
2320.000 2.99035
2325.000 3.08876
2330.000 2.95463
2335.000 2.74569
2340.000 2.39742
2345.000 2.14452
2350.000 1.89209
2355.000 2.04806
2360.000 2.56831
2365.000 2.43005
2370.000 2.30289
2375.000 2.48386
2380.000 2.51197
2385.000 2.21315
2390.000 1.88088
2395.000 2.09871
2400.000 2.12875
2405.000 2.01072
2410.000 1.94006
2415.000 1.87258
2420.000 2.27064
2425.000 2.86359
2430.000 3.14023
2435.000 2.99760
2440.000 2.87950
2445.000 3.02076
2450.000 3.03737
2455.000 2.88699
2460.000 2.91723
2465.000 2.88571
2470.000 2.64419
2475.000 2.65659
2480.000 2.77389
2485.000 2.70686
2490.000 2.65746
2495.000 2.60924
2500.000 2.94388
2505.000 3.23480
2510.000 3.13432
2515.000 2.93316
2520.000 2.62565
2525.000 2.35029
2530.000 2.21249
2535.000 2.18545
2540.000 2.21738
2545.000 2.22929
2550.000 2.34208
2555.000 2.50013
2560.000 2.86733
2565.000 3.02133
2570.000 3.25498
2575.000 3.54006
2580.000 3.00914
2585.000 2.88438
2590.000 3.24986
2595.000 3.46085
2600.000 3.27066
2605.000 2.94563
2610.000 2.85020
2615.000 2.68488
2620.000 2.98801
2625.000 3.32662
2630.000 3.21180
2635.000 3.19878
2640.000 4.12818
2645.000 5.02135
2650.000 5.27807
2655.000 5.26745
2660.000 5.25635
2665.000 4.72737
2670.000 4.31817
2675.000 4.38957
2680.000 4.55414
2685.000 4.50996
2690.000 4.45162
2695.000 4.14765
2700.000 3.99684
2705.000 4.29289
2710.000 4.44824
2715.000 4.16896
2720.000 4.04219
2725.000 3.92570
2730.000 4.06833
2735.000 4.31597
2740.000 4.12536
2745.000 3.44366
2750.000 3.10974
2755.000 3.10092
2760.000 3.41312
2765.000 3.84696
2770.000 3.96567
2775.000 4.14051
2780.000 4.17930
2785.000 3.71845
2790.000 3.48556
2795.000 2.89762
2800.000 1.92684
2805.000 1.78294
2810.000 2.55373
2815.000 3.85093
2820.000 4.82391
2825.000 5.21773
2830.000 5.24016
2835.000 5.00665
2840.000 4.88730
2845.000 4.63703
2850.000 4.47739
2855.000 4.12621
2860.000 4.26194
2865.000 4.79388
2870.000 4.85414
2875.000 4.81302
2880.000 4.81728
2885.000 4.99520
2890.000 5.15217
2895.000 5.07864
2900.000 5.28990
2905.000 5.79343
2910.000 6.14514
2915.000 6.00065
2920.000 5.99104
2925.000 5.74466
2930.000 5.42260
2935.000 5.48966
2940.000 5.57181
2945.000 5.68683
2950.000 5.60934
2955.000 5.66438
2960.000 6.07172
2965.000 6.07740
2970.000 5.80129
2975.000 5.73964
2980.000 6.05352
2985.000 5.70947
2990.000 5.59559
2995.000 6.11641
3000.000 6.19232
3005.000 5.79973
3010.000 6.00736
3015.000 6.21022
3020.000 6.01449
3025.000 5.86723
3030.000 5.97088
3035.000 6.10373
3040.000 6.09838
3045.000 6.07256
3050.000 6.02539
3055.000 6.21610
3060.000 5.96754
3065.000 5.83842
3070.000 6.02170
3075.000 6.16755
3080.000 6.34379
3085.000 6.65937
3090.000 6.64181
3095.000 6.25445
3100.000 5.82437
3105.000 6.02026
3110.000 6.64800
3115.000 6.85047
3120.000 6.57773
3125.000 6.37733
3130.000 6.47649
3135.000 6.56720
3140.000 6.85192
3145.000 6.90224
3150.000 6.88314
3155.000 6.94623
3160.000 6.69933
3165.000 6.60338
3170.000 6.81841
3175.000 7.19527
3180.000 7.05218
3185.000 6.74023
3190.000 6.80621
3195.000 6.90687
3200.000 7.17163
3205.000 7.59917
3210.000 7.46587
3215.000 7.15003
3220.000 6.78126
3225.000 6.52585
3230.000 6.53506
3235.000 6.85498
3240.000 7.12603
3245.000 7.04809
3250.000 6.96447
3255.000 7.22585
3260.000 7.56916
3265.000 7.66687
3270.000 7.54757
3275.000 7.34236
3280.000 7.23671
3285.000 7.37430
3290.000 7.67732
3295.000 7.99905
3300.000 8.13852
3305.000 7.96969
3310.000 7.72054
3315.000 7.63184
3320.000 7.64176
3325.000 7.63523
3330.000 7.58709
3335.000 7.50285
3340.000 7.42114
3345.000 7.38565
3350.000 7.42711
3355.000 7.53423
3360.000 7.54052
3365.000 7.32949
3370.000 7.13973
3375.000 7.19943
3380.000 7.34002
3385.000 7.36930
3390.000 7.39718
3395.000 7.54271
3400.000 7.65934
3405.000 7.60117
3410.000 7.49067
3415.000 7.48140
3420.000 7.58323
3425.000 7.73595
3430.000 7.74292
3435.000 7.48352
3440.000 7.27735
3445.000 7.41141
3450.000 7.60184
3455.000 7.53812
3460.000 7.37398
3465.000 7.31679
3470.000 7.32408
3475.000 7.31100
3480.000 7.27290
3485.000 7.23076
3490.000 7.22816
3495.000 7.29430
3500.000 7.37862
3505.000 7.42305
3510.000 7.12801
3515.000 7.17158
3520.000 7.11601
3525.000 7.14233
3530.000 7.30540
3535.000 7.50185
3540.000 7.63979
3545.000 7.66108
3550.000 7.64290
3555.000 7.54650
3560.000 7.46250
3565.000 7.19028
3570.000 6.93794
3575.000 6.85972
3580.000 6.83303
3585.000 6.77680
3590.000 6.89009
3595.000 7.15429
3600.000 7.30291
3605.000 7.21770
3610.000 6.98308
3615.000 6.93544
3620.000 7.01391
3625.000 7.29846
3630.000 7.31935
3635.000 7.23657
3640.000 7.30323
3645.000 7.27968
3650.000 7.38455
3655.000 7.70861
3660.000 7.85523
3665.000 7.84873
3670.000 7.73683
3675.000 7.64522
3680.000 7.49438
3685.000 7.49339
3690.000 7.62612
3695.000 7.76799
3700.000 7.83434
3705.000 7.57594
3710.000 7.70794
3715.000 8.17801
3720.000 8.14941
3725.000 8.16065
3730.000 8.18302
3735.000 8.07767
3740.000 8.86203
3745.000 8.30127
3750.000 7.67396
3755.000 9.06248
3760.000 9.74357
3765.000 8.94431
3770.000 8.01446
3775.000 9.62093
3780.000 11.71647
3785.000 11.73748
3790.000 10.28228
3795.000 8.63162
3800.000 8.74364
3805.000 10.64169
3810.000 12.27037
3815.000 12.62134
3820.000 12.19893
3825.000 10.54536
3830.000 8.59190
3835.000 7.75835
3840.000 9.27625
3845.000 11.60422
3850.000 13.10475
3855.000 13.55119
3860.000 13.63009
3865.000 13.82173
3870.000 13.54965
3875.000 12.74829
3880.000 11.30209
3885.000 8.99833
3890.000 8.08960
3895.000 9.93482
3900.000 12.05254
3905.000 13.23594
3910.000 14.04336
3915.000 14.52802
3920.000 14.22590
3925.000 12.16051
3930.000 9.03546
3935.000 9.30390
3940.000 12.26756
3945.000 13.46013
3950.000 13.50560
3955.000 12.93170
3960.000 11.23831
3965.000 8.18404
3970.000 6.85146
3975.000 9.52303
3980.000 12.51672
3985.000 13.90029
3990.000 14.42906
3995.000 14.69083
4000.000 15.01067
4005.000 15.27241
4010.000 15.54153
4015.000 15.80037
4020.000 15.95438
4025.000 15.72755
4030.000 15.47555
4035.000 15.86664
4040.000 16.18895
4045.000 15.93920
4050.000 15.75149
4055.000 15.34438
4060.000 15.15597
4065.000 15.06401
4070.000 14.91592
4075.000 14.33167
4080.000 13.90887
4085.000 13.87852
4090.000 13.13949
4095.000 10.76278
4100.000 8.67785
4105.000 9.77655
4110.000 12.17673
4115.000 13.61189
4120.000 14.11148
4125.000 14.24904
4130.000 14.36025
4135.000 14.94722
4140.000 15.43040
4145.000 15.43961
4150.000 15.35748
4155.000 15.17689
4160.000 15.31379
4165.000 15.28880
4170.000 14.86151
4175.000 14.57198
4180.000 14.77684
4185.000 15.07628
4190.000 15.37549
4195.000 15.16561
4200.000 14.82909
4205.000 15.10814
4210.000 15.47034
4215.000 15.38285
4220.000 15.04364
4225.000 14.51826
4230.000 14.61487
4235.000 14.69876
4240.000 14.90503
4245.000 14.74999
4250.000 14.66186
4255.000 14.97226
4260.000 15.08037
4265.000 15.01466
4270.000 14.60744
4275.000 14.70704
4280.000 14.96305
4285.000 14.57420
4290.000 14.09094
4295.000 13.89494
4300.000 13.59035
4305.000 13.54285
4310.000 13.52205
4315.000 13.51141
4320.000 13.43326
4325.000 12.96121
4330.000 11.92469
4335.000 9.71728
4340.000 8.02217
4345.000 9.38525
4350.000 11.57445
4355.000 13.05328
4360.000 13.88806
4365.000 14.19596
4370.000 14.08408
4375.000 14.16613
4380.000 14.25452
4385.000 14.05870
4390.000 14.25700
4395.000 14.26393
4400.000 14.31199
4405.000 14.50538
4410.000 14.58877
4415.000 14.37257
4420.000 14.37767
4425.000 14.49123
4430.000 14.54941
4435.000 14.52882
4440.000 14.48668
4445.000 14.39443
4450.000 14.45383
4455.000 14.16612
4460.000 14.04989
4465.000 14.07946
4470.000 14.26023
4475.000 14.33935
4480.000 14.03661
4485.000 14.10748
4490.000 14.19743
4495.000 14.42776
4500.000 14.57388
4505.000 14.69411
4510.000 14.72088
4515.000 14.56146
4520.000 14.19293
4525.000 13.79713
4530.000 13.54748
4535.000 13.95532
4540.000 14.25648
4545.000 13.85816
4550.000 13.33179
4555.000 13.45271
4560.000 13.85211
4565.000 14.09641
4570.000 14.11731
4575.000 13.99161
4580.000 13.64038
4585.000 13.50730
4590.000 13.70126
4595.000 13.80914
4600.000 13.90120
4605.000 14.03969
4610.000 14.14288
4615.000 14.10144
4620.000 14.01768
4625.000 13.97078
4630.000 13.83986
4635.000 13.83551
4640.000 13.86761
4645.000 13.75930
4650.000 13.70972
4655.000 13.87720
4660.000 13.97124
4665.000 13.67930
4670.000 13.50749
4675.000 13.70424
4680.000 13.86218
4685.000 13.93698
4690.000 13.82102
4695.000 13.71172
4700.000 13.49972
4705.000 13.41166
4710.000 13.45434
4715.000 13.57918
4720.000 13.70796
4725.000 13.56968
4730.000 13.38841
4735.000 13.32639
4740.000 13.39105
4745.000 13.43363
4750.000 13.35832
4755.000 13.19621
4760.000 13.01560
4765.000 12.90693
4770.000 13.00417
4775.000 13.06889
4780.000 13.06322
4785.000 13.01263
4790.000 12.96293
4795.000 12.96579
4800.000 12.91692
4805.000 12.80557
4810.000 12.81740
4815.000 12.76982
4820.000 12.57419
4825.000 12.42517
4830.000 12.32781
4835.000 12.10423
4840.000 11.79097
4845.000 11.39989
4850.000 10.52797
4855.000 8.79443
4860.000 7.38253
4865.000 8.13484
4870.000 9.79842
4875.000 10.71317
4880.000 11.21660
4885.000 11.48853
4890.000 11.65616
4895.000 12.02080
4900.000 12.27292
4905.000 12.35257
4910.000 12.31562
4915.000 12.15550
4920.000 11.93937
4925.000 12.04431
4930.000 12.34614
4935.000 12.30071
4940.000 12.30447
4945.000 12.47691
4950.000 12.58282
4955.000 12.43834
4960.000 12.40777
4965.000 12.51449
4970.000 12.41336
4975.000 12.24124
4980.000 11.99039
4985.000 12.00367
4990.000 12.24859
4995.000 12.19396
5000.000 11.92250
5005.000 11.72171
5010.000 11.78220
5015.000 11.65250
5020.000 11.57448
5025.000 11.78436
5030.000 11.91371
5035.000 11.87395
5040.000 11.67411
5045.000 11.72051
5050.000 11.89416
5055.000 11.87385
5060.000 11.98627
5065.000 11.78140
5070.000 11.59484
5075.000 11.51772
5080.000 11.50478
5085.000 11.67237
5090.000 11.79808
5095.000 11.69544
5100.000 11.55297
5105.000 11.61042
5110.000 11.66215
5115.000 11.68032
5120.000 11.59057
5125.000 11.46705
5130.000 11.38353
5135.000 11.30977
5140.000 11.25448
5145.000 11.31120
5150.000 11.36743
5155.000 11.45012
5160.000 11.27293
5165.000 10.68876
5170.000 10.39299
5175.000 10.77101
5180.000 11.03752
5185.000 10.81271
5190.000 10.74417
5195.000 10.85650
5200.000 10.92403
5205.000 10.85909
5210.000 10.96161
5215.000 11.17916
5220.000 11.19196
5225.000 10.90193
5230.000 10.68105
5235.000 10.85076
5240.000 11.11897
5245.000 11.18429
5250.000 11.11664
5255.000 11.03692
5260.000 10.75399
5265.000 10.33986
5270.000 10.26598
5275.000 10.45692
5280.000 10.69215
5285.000 10.89347
5290.000 11.08934
5295.000 11.03314
5300.000 10.89599
5305.000 10.91563
5310.000 10.96699
5315.000 10.84500
5320.000 10.69133
5325.000 10.56007
5330.000 10.52401
5335.000 10.58642
5340.000 10.64015
5345.000 10.72716
5350.000 10.77567
5355.000 10.86174
5360.000 10.80108
5365.000 10.53848
5370.000 10.43229
5375.000 10.61567
5380.000 10.66270
5385.000 10.66023
5390.000 10.64996
5395.000 10.46206
5400.000 10.33711
5405.000 10.29610
5410.000 10.33013
5415.000 10.43701
5420.000 10.46928
5425.000 10.40917
5430.000 10.40191
5435.000 10.45991
5440.000 10.56633
5445.000 10.47301
5450.000 10.38172
5455.000 10.37457
5460.000 10.40229
5465.000 10.42191
5470.000 10.42546
5475.000 10.35060
5480.000 10.27248
5485.000 10.36483
5490.000 10.43914
5495.000 10.39353
5500.000 10.28042
5505.000 10.18729
5510.000 10.22753
5515.000 10.30280
5520.000 10.29338
5525.000 10.13714
5530.000 10.03074
5535.000 10.10708
5540.000 10.16984
5545.000 10.18979
5550.000 10.24639
5555.000 10.25247
5560.000 10.18840
5565.000 10.08784
5570.000 9.94772
5575.000 9.99099
5580.000 10.05059
5585.000 9.83604
5590.000 9.64406
5595.000 9.62823
5600.000 9.69099
5605.000 9.87204
5610.000 9.98445
5615.000 9.88362
5620.000 9.80990
5625.000 9.84925
5630.000 9.88547
5635.000 9.86293
5640.000 9.83299
5645.000 9.89811
5650.000 9.88515
5655.000 9.69019
5660.000 9.53339
5665.000 9.55267
5670.000 9.68200
5675.000 9.73713
5680.000 9.67705
5685.000 9.57904
5690.000 9.60496
5695.000 9.65462
5700.000 9.66154
5705.000 9.55455
5710.000 9.45958
5715.000 9.50497
5720.000 9.61500
5725.000 9.64747
5730.000 9.62007
5735.000 9.58919
5740.000 9.58037
5745.000 9.55399
5750.000 9.49590
5755.000 9.47941
5760.000 9.49841
5765.000 9.47019
5770.000 9.48882
5775.000 9.48712
5780.000 9.43067
5785.000 9.38312
5790.000 9.38814
5795.000 9.37739
5800.000 9.40412
5805.000 9.43533
5810.000 9.38630
5815.000 9.35713
5820.000 9.40301
5825.000 9.40660
5830.000 9.39579
5835.000 9.40103
5840.000 9.42044
5845.000 9.38861
5850.000 9.29959
5855.000 9.18511
5860.000 9.12976
5865.000 9.21032
5870.000 9.29101
5875.000 9.26847
5880.000 9.24129
5885.000 9.00600
5890.000 8.69986
5895.000 8.65772
5900.000 8.88174
5905.000 9.06945
5910.000 9.07937
5915.000 9.04982
5920.000 9.03016
5925.000 9.01485
5930.000 8.95858
5935.000 8.94614
5940.000 8.93064
5945.000 8.87694
5950.000 8.83720
5955.000 8.82841
5960.000 8.83282
5965.000 8.83452
5970.000 8.82106
5975.000 8.79660
5980.000 8.71911
5985.000 8.66436
5990.000 8.66537
5995.000 8.71423
6000.000 8.66881
6005.000 8.58088
6010.000 8.53696
6015.000 8.50243
6020.000 8.47516
6025.000 8.47503
6030.000 8.52665
6035.000 8.53343
6040.000 8.47957
6045.000 8.47994
6050.000 8.53330
6055.000 8.55980
6060.000 8.56467
6065.000 8.53344
6070.000 8.51894
6075.000 8.47406
6080.000 8.43861
6085.000 8.41721
6090.000 8.41714
6095.000 8.38476
6100.000 8.28599
6105.000 8.28812
6110.000 8.35372
6115.000 8.31399
6120.000 8.24843
6125.000 8.27604
6130.000 8.26737
6135.000 8.16683
6140.000 8.11516
6145.000 8.12164
6150.000 8.17973
6155.000 8.14105
6160.000 8.03628
6165.000 7.99192
6170.000 8.03382
6175.000 8.12902
6180.000 8.18418
6185.000 8.12624
6190.000 8.08932
6195.000 8.14062
6200.000 8.19054
6205.000 8.15737
6210.000 8.10508
6215.000 8.07613
6220.000 8.05487
6225.000 8.05159
6230.000 8.01516
6235.000 7.96962
6240.000 7.96225
6245.000 7.90120
6250.000 7.89085
6255.000 7.93904
6260.000 8.00091
6265.000 8.02767
6270.000 7.99166
6275.000 7.85922
6280.000 7.76318
6285.000 7.86570
6290.000 7.94135
6295.000 7.91681
6300.000 7.88454
6305.000 7.88702
6310.000 7.88133
6315.000 7.84314
6320.000 7.81173
6325.000 7.84522
6330.000 7.82274
6335.000 7.78552
6340.000 7.75510
6345.000 7.70595
6350.000 7.72129
6355.000 7.75067
6360.000 7.74543
6365.000 7.70235
6370.000 7.67212
6375.000 7.67841
6380.000 7.68065
6385.000 7.70696
6390.000 7.70988
6395.000 7.67151
6400.000 7.63314
6405.000 7.60636
6410.000 7.55688
6415.000 7.53926
6420.000 7.53802
6425.000 7.57325
6430.000 7.55528
6435.000 7.51217
6440.000 7.51233
6445.000 7.52022
6450.000 7.48172
6455.000 7.38787
6460.000 7.33746
6465.000 7.38540
6470.000 7.43281
6475.000 7.44047
6480.000 7.44124
6485.000 7.35375
6490.000 7.22935
6495.000 7.17018
6500.000 7.27930
6505.000 7.38106
6510.000 7.35109
6515.000 7.26524
6520.000 7.26636
6525.000 7.26913
6530.000 7.22390
6535.000 7.13078
6540.000 7.01636
6545.000 6.83675
6550.000 6.48770
6555.000 5.72876
6560.000 4.91330
6565.000 5.09727
6570.000 6.00176
6575.000 6.55427
6580.000 6.77561
6585.000 6.88107
6590.000 6.94055
6595.000 7.01345
6600.000 7.10301
6605.000 7.11517
6610.000 7.10538
6615.000 7.09754
6620.000 7.11017
6625.000 7.13353
6630.000 7.11847
6635.000 7.11651
6640.000 7.12297
6645.000 7.10097
6650.000 7.09391
6655.000 7.08303
6660.000 7.07053
6665.000 7.06553
6670.000 7.04829
6675.000 7.00415
6680.000 6.99939
6685.000 7.01079
6690.000 7.01704
6695.000 7.01962
6700.000 7.02253
6705.000 6.97762
6710.000 6.94580
6715.000 6.91772
6720.000 6.88853
6725.000 6.90020
6730.000 6.91458
6735.000 6.92868
6740.000 6.89894
6745.000 6.86102
6750.000 6.81383
6755.000 6.79221
6760.000 6.80087
6765.000 6.82690
6770.000 6.82345
6775.000 6.82642
6780.000 6.81357
6785.000 6.81371
6790.000 6.82182
6795.000 6.80320
6800.000 6.80371
6805.000 6.77309
6810.000 6.76328
6815.000 6.73953
6820.000 6.71468
6825.000 6.68100
6830.000 6.65705
6835.000 6.66465
6840.000 6.71328
6845.000 6.69490
6850.000 6.69470
6855.000 6.68371
6860.000 6.65147
6865.000 6.72121
6870.000 6.71972
6875.000 6.62864
6880.000 6.62163
6885.000 6.62960
6890.000 6.62638
6895.000 6.61764
6900.000 6.61230
6905.000 6.61988
6910.000 6.62077
6915.000 6.60979
