# Wavelength_[A] F_lambda_[norm]
1150.000 0.03927
1155.000 0.04417
1160.000 0.03623
1165.000 0.00277
1170.000 0.00000
1175.000 0.00000
1180.000 0.00968
1185.000 0.00646
1190.000 0.00000
1195.000 0.00000
1200.000 0.00755
1205.000 0.02649
1210.000 0.11264
1215.000 0.19822
1220.000 0.12201
1225.000 0.02114
1230.000 0.00275
1235.000 0.00289
1240.000 0.00253
1245.000 0.00167
1250.000 0.00129
1255.000 0.00135
1260.000 0.00130
1265.000 0.00000
1270.000 0.00000
1275.000 0.00063
1280.000 0.00235
1285.000 0.00215
1290.000 0.00043
1295.000 0.00042
1300.000 0.00129
1305.000 0.00000
1310.000 0.00097
1315.000 0.00202
1320.000 0.00154
1325.000 0.00096
1330.000 0.00148
1335.000 0.00126
1340.000 0.00045
1345.000 0.00006
1350.000 0.00061
1355.000 0.00119
1360.000 0.00138
1365.000 0.00178
1370.000 0.00104
1375.000 0.00164
1380.000 0.00214
1385.000 0.00190
1390.000 0.00052
1395.000 0.00158
1400.000 0.00225
1405.000 0.00305
1410.000 0.00253
1415.000 0.00065
1420.000 0.00000
1425.000 0.00099
1430.000 0.00213
1435.000 0.00154
1440.000 0.00265
1445.000 0.00549
1450.000 0.00437
1455.000 0.00212
1460.000 0.00099
1465.000 0.00138
1470.000 0.00254
1475.000 0.00295
1480.000 0.00294
1485.000 0.00212
1490.000 0.00226
1495.000 0.00254
1500.000 0.00251
1505.000 0.00241
1510.000 0.00238
1515.000 0.00236
1520.000 0.00212
1525.000 0.00222
1530.000 0.00272
1535.000 0.00330
1540.000 0.00358
1545.000 0.00537
1550.000 0.00521
1555.000 0.00303
1560.000 0.00386
1565.000 0.00405
1570.000 0.00403
1575.000 0.00477
1580.000 0.00363
1585.000 0.00358
1590.000 0.00378
1595.000 0.00266
1600.000 0.00217
1605.000 0.00336
1610.000 0.00320
1615.000 0.00178
1620.000 0.00145
1625.000 0.00224
1630.000 0.00351
1635.000 0.00406
1640.000 0.00247
1645.000 0.00327
1650.000 0.00413
1655.000 0.00360
1660.000 0.00523
1665.000 0.00545
1670.000 0.00453
1675.000 0.00357
1680.000 0.00513
1685.000 0.00504
1690.000 0.00482
1695.000 0.00549
1700.000 0.00643
1705.000 0.00530
1710.000 0.00439
1715.000 0.00485
1720.000 0.00577
1725.000 0.00640
1730.000 0.00630
1735.000 0.00734
1740.000 0.00769
1745.000 0.00913
1750.000 0.00916
1755.000 0.00865
1760.000 0.00943
1765.000 0.01091
1770.000 0.01151
1775.000 0.01349
1780.000 0.01191
1785.000 0.01059
1790.000 0.00748
1795.000 0.00870
1800.000 0.01133
1805.000 0.01254
1810.000 0.01458
1815.000 0.01613
1820.000 0.01738
1825.000 0.01654
1830.000 0.01646
1835.000 0.01694
1840.000 0.01664
1845.000 0.01535
1850.000 0.01527
1855.000 0.01665
1860.000 0.01893
1865.000 0.02022
1870.000 0.02136
1875.000 0.02210
1880.000 0.02290
1885.000 0.02433
1890.000 0.02546
1895.000 0.02560
1900.000 0.02313
1905.000 0.02368
1910.000 0.02612
1915.000 0.02707
1920.000 0.02905
1925.000 0.02788
1930.000 0.02592
1935.000 0.02484
1940.000 0.02802
1945.000 0.03529
1950.000 0.03873
1955.000 0.06950
1960.000 0.07769
1965.000 0.03795
1970.000 0.00228
1975.000 0.00000
1980.000 0.02505
1985.000 0.11640
1990.000 0.12057
1995.000 0.06998
2000.000 0.05981
2005.000 0.00000
2010.000 0.00000
2015.000 0.00541
2020.000 0.00000
2025.000 0.00000
2030.000 0.00000
2035.000 0.00000
2040.000 0.00000
2045.000 0.00263
2050.000 0.04102
2055.000 0.05076
2060.000 0.07631
2065.000 0.03717
2070.000 0.03176
2075.000 0.09186
2080.000 0.15561
2085.000 0.12107
2090.000 0.09422
2095.000 0.06781
2100.000 0.16699
2105.000 0.24392
2110.000 0.24608
2115.000 0.20274
2120.000 0.22794
2125.000 0.22575
2130.000 0.07592
2135.000 0.19255
2140.000 0.22341
2145.000 0.23884
2150.000 0.25847
2155.000 0.22291
2160.000 0.20416
2165.000 0.07271
2170.000 0.00000
2175.000 0.09513
2180.000 0.24489
2185.000 0.26274
2190.000 0.19133
2195.000 0.15309
2200.000 0.22884
2205.000 0.21044
2210.000 0.27384
2215.000 0.13267
2220.000 0.19087
2225.000 0.20931
2230.000 0.14495
2235.000 0.20502
2240.000 0.26618
2245.000 0.26098
2250.000 0.14326
2255.000 0.27148
2260.000 0.27467
2265.000 0.16243
2270.000 0.12114
2275.000 0.12632
2280.000 0.13529
2285.000 0.10451
2290.000 0.18047
2295.000 0.19848
2300.000 0.20682
2305.000 0.18775
2310.000 0.21915
2315.000 0.16808
2320.000 0.23750
2325.000 0.34049
2330.000 0.26541
2335.000 0.20117
2340.000 0.23231
2345.000 0.19453
2350.000 0.19409
2355.000 0.21680
2360.000 0.24368
2365.000 0.22774
2370.000 0.25958
2375.000 0.23262
2380.000 0.22291
2385.000 0.19346
2390.000 0.22208
2395.000 0.21502
2400.000 0.18431
2405.000 0.18010
2410.000 0.19302
2415.000 0.21823
2420.000 0.31127
2425.000 0.38139
2430.000 0.41802
2435.000 0.41677
2440.000 0.41362
2445.000 0.34975
2450.000 0.20682
2455.000 0.14735
2460.000 0.21661
2465.000 0.25201
2470.000 0.24107
2475.000 0.24531
2480.000 0.25752
2485.000 0.20947
2490.000 0.15990
2495.000 0.25294
2500.000 0.36570
2505.000 0.36868
2510.000 0.32127
2515.000 0.24525
2520.000 0.20448
2525.000 0.19801
2530.000 0.25084
2535.000 0.27667
2540.000 0.27008
2545.000 0.29206
2550.000 0.32825
2555.000 0.39235
2560.000 0.40781
2565.000 0.47672
2570.000 0.57863
2575.000 0.60805
2580.000 0.66144
2585.000 0.62368
2590.000 0.58475
2595.000 0.48534
2600.000 0.44090
2605.000 0.42714
2610.000 0.40641
2615.000 0.45304
2620.000 0.53305
2625.000 0.49462
2630.000 0.52673
2635.000 0.89452
2640.000 1.21902
2645.000 1.19857
2650.000 1.13133
2655.000 1.28897
2660.000 1.26027
2665.000 1.16674
2670.000 1.22682
2675.000 1.18604
2680.000 1.18451
2685.000 1.18592
2690.000 1.10246
2695.000 1.05930
2700.000 1.17474
2705.000 1.24409
2710.000 1.18008
2715.000 1.10287
2720.000 0.86337
2725.000 0.94227
2730.000 1.01040
2735.000 0.86698
2740.000 0.66042
2745.000 0.59213
2750.000 0.67062
2755.000 0.75201
2760.000 0.91100
2765.000 1.08341
2770.000 1.17230
2775.000 1.02570
2780.000 0.84606
2785.000 0.73087
2790.000 0.49618
2795.000 0.34628
2800.000 0.35106
2805.000 0.45000
2810.000 0.64017
2815.000 1.01861
2820.000 1.24385
2825.000 1.33113
2830.000 1.41947
2835.000 1.41028
2840.000 1.32253
2845.000 1.07456
2850.000 0.72149
2855.000 0.85159
2860.000 1.35017
2865.000 1.52914
2870.000 1.49029
2875.000 1.47574
2880.000 1.33206
2885.000 1.58781
2890.000 1.74069
2895.000 1.77739
2900.000 1.92715
2905.000 1.98943
2910.000 2.06222
2915.000 2.11796
2920.000 2.03999
2925.000 1.94254
2930.000 1.97218
2935.000 2.03536
2940.000 2.06716
2945.000 2.10668
2950.000 2.10707
2955.000 2.19258
2960.000 2.19063
2965.000 1.99450
2970.000 2.04610
2975.000 2.21045
2980.000 2.03618
2985.000 1.89755
2990.000 2.08940
2995.000 2.10358
3000.000 1.91520
3005.000 1.99472
3010.000 2.17860
3015.000 2.10716
3020.000 2.08107
3025.000 2.34330
3030.000 2.59900
3035.000 2.58052
3040.000 2.48620
3045.000 2.56630
3050.000 2.61664
3055.000 2.43006
3060.000 2.40284
3065.000 2.54432
3070.000 2.74138
3075.000 2.76144
3080.000 2.83392
3085.000 2.94965
3090.000 2.47728
3095.000 2.23329
3100.000 2.34989
3105.000 2.78662
3110.000 3.00542
3115.000 2.87465
3120.000 2.60434
3125.000 2.63423
3130.000 2.94579
3135.000 2.94278
3140.000 2.73692
3145.000 2.54121
3150.000 2.59093
3155.000 2.49335
3160.000 2.55717
3165.000 2.74711
3170.000 2.99110
3175.000 2.98704
3180.000 2.73246
3185.000 2.65252
3190.000 2.62828
3195.000 2.73073
3200.000 3.16009
3205.000 3.25192
3210.000 3.23932
3215.000 3.15492
3220.000 3.01603
3225.000 2.85130
3230.000 2.74951
3235.000 2.78266
3240.000 2.89523
3245.000 3.01555
3250.000 3.13483
3255.000 3.26888
3260.000 3.46907
3265.000 3.74387
3270.000 3.89450
3275.000 3.76515
3280.000 3.57917
3285.000 3.57966
3290.000 3.70963
3295.000 3.84607
3300.000 3.90201
3305.000 3.83539
3310.000 3.74801
3315.000 3.74088
3320.000 3.76822
3325.000 3.76211
3330.000 3.71278
3335.000 3.64156
3340.000 3.63606
3345.000 3.75093
3350.000 3.84272
3355.000 3.77765
3360.000 3.65882
3365.000 3.60831
3370.000 3.58745
3375.000 3.54494
3380.000 3.53986
3385.000 3.63275
3390.000 3.77956
3395.000 3.91487
3400.000 3.99269
3405.000 3.98655
3410.000 3.92869
3415.000 3.87066
3420.000 3.88234
3425.000 3.99224
3430.000 4.04494
3435.000 3.90434
3440.000 3.69566
3445.000 3.58033
3450.000 3.60326
3455.000 3.74715
3460.000 3.86220
3465.000 3.82292
3470.000 3.73360
3475.000 3.71364
3480.000 3.71308
3485.000 3.67146
3490.000 3.65569
3495.000 3.73546
3500.000 3.86418
3505.000 3.97037
3510.000 4.29850
3515.000 4.10862
3520.000 4.03815
3525.000 3.93342
3530.000 4.21661
3535.000 4.44800
3540.000 4.53437
3545.000 4.54786
3550.000 4.50597
3555.000 4.43061
3560.000 4.41262
3565.000 4.06814
3570.000 3.67755
3575.000 3.73615
3580.000 3.57008
3585.000 3.34329
3590.000 3.72796
3595.000 4.32914
3600.000 4.54463
3605.000 4.21742
3610.000 4.00935
3615.000 4.12605
3620.000 4.00652
3625.000 4.28338
3630.000 4.39449
3635.000 4.20755
3640.000 4.36376
3645.000 4.38168
3650.000 4.39340
3655.000 4.83621
3660.000 5.06929
3665.000 5.05648
3670.000 4.97799
3675.000 4.98291
3680.000 4.79837
3685.000 4.72267
3690.000 4.87886
3695.000 5.02431
3700.000 5.06982
3705.000 4.88754
3710.000 4.79125
3715.000 5.05138
3720.000 4.72661
3725.000 4.54611
3730.000 4.49899
3735.000 4.05287
3740.000 4.19400
3745.000 4.30665
3750.000 4.21243
3755.000 4.74260
3760.000 4.79280
3765.000 4.76972
3770.000 4.89255
3775.000 5.37807
3780.000 5.84176
3785.000 5.87626
3790.000 5.40344
3795.000 4.95306
3800.000 4.83596
3805.000 5.38029
3810.000 5.58594
3815.000 5.22768
3820.000 4.75485
3825.000 4.23624
3830.000 3.73777
3835.000 3.55319
3840.000 3.88799
3845.000 4.60758
3850.000 5.11026
3855.000 5.20033
3860.000 5.10938
3865.000 5.32935
3870.000 5.22769
3875.000 5.17362
3880.000 4.97660
3885.000 4.65286
3890.000 4.56812
3895.000 5.03304
3900.000 5.36262
3905.000 5.11025
3910.000 5.58679
3915.000 5.75249
3920.000 5.35116
3925.000 4.56735
3930.000 3.37503
3935.000 2.84124
3940.000 3.59595
3945.000 4.49559
3950.000 5.21636
3955.000 5.36250
3960.000 4.82099
3965.000 3.71091
3970.000 3.12059
3975.000 3.93094
3980.000 5.13581
3985.000 5.98619
3990.000 6.70883
3995.000 7.09560
4000.000 7.15001
4005.000 7.10503
4010.000 7.17656
4015.000 7.37443
4020.000 7.51646
4025.000 7.55007
4030.000 7.30465
4035.000 7.23188
4040.000 7.33709
4045.000 7.11544
4050.000 7.25117
4055.000 7.12788
4060.000 6.86143
4065.000 6.71133
4070.000 6.75975
4075.000 6.82597
4080.000 7.04323
4085.000 7.34678
4090.000 7.34187
4095.000 6.85719
4100.000 6.15990
4105.000 6.25289
4110.000 6.82617
4115.000 7.27040
4120.000 7.46819
4125.000 7.50339
4130.000 7.35145
4135.000 7.33097
4140.000 7.41939
4145.000 7.34640
4150.000 7.34999
4155.000 7.26588
4160.000 7.33034
4165.000 7.41265
4170.000 7.27502
4175.000 7.07686
4180.000 7.16004
4185.000 7.16851
4190.000 7.16998
4195.000 7.10761
4200.000 6.94471
4205.000 7.17832
4210.000 7.46470
4215.000 7.48057
4220.000 7.38933
4225.000 7.00571
4230.000 6.92585
4235.000 7.04708
4240.000 7.08555
4245.000 7.30539
4250.000 7.32255
4255.000 7.36642
4260.000 7.23545
4265.000 7.17767
4270.000 6.92853
4275.000 6.79720
4280.000 7.11216
4285.000 7.08928
4290.000 6.84298
4295.000 6.49805
4300.000 5.85269
4305.000 5.48743
4310.000 5.55921
4315.000 6.35090
4320.000 7.15659
4325.000 7.07206
4330.000 7.19465
4335.000 7.02481
4340.000 6.38593
4345.000 6.54344
4350.000 7.05245
4355.000 7.33202
4360.000 7.63954
4365.000 7.85085
4370.000 7.69141
4375.000 7.42049
4380.000 7.25571
4385.000 6.90641
4390.000 7.11223
4395.000 7.33529
4400.000 7.45293
4405.000 7.41048
4410.000 7.65040
4415.000 7.80815
4420.000 7.89016
4425.000 8.06364
4430.000 8.03489
4435.000 8.00214
4440.000 8.13808
4445.000 8.10894
4450.000 8.11193
4455.000 7.74175
4460.000 7.60242
4465.000 7.81229
4470.000 7.95188
4475.000 8.19228
4480.000 8.13360
4485.000 8.22973
4490.000 8.25591
4495.000 8.29886
4500.000 8.52559
4505.000 8.82986
4510.000 8.93902
4515.000 8.68824
4520.000 8.43844
4525.000 8.04358
4530.000 7.79302
4535.000 7.95072
4540.000 8.20521
4545.000 8.26129
4550.000 8.15333
4555.000 8.20497
4560.000 8.30553
4565.000 8.27799
4570.000 8.37383
4575.000 8.45173
4580.000 8.27851
4585.000 8.15858
4590.000 8.17735
4595.000 8.15391
4600.000 8.18086
4605.000 8.22676
4610.000 8.29776
4615.000 8.39680
4620.000 8.53987
4625.000 8.56491
4630.000 8.44094
4635.000 8.31145
4640.000 8.18176
4645.000 8.01651
4650.000 7.99015
4655.000 8.12464
4660.000 8.14192
4665.000 7.88448
4670.000 7.85391
4675.000 7.95338
4680.000 8.00938
4685.000 8.09487
4690.000 8.06980
4695.000 7.98671
4700.000 7.75835
4705.000 7.65138
4710.000 7.77351
4715.000 7.93810
4720.000 8.10890
4725.000 8.20421
4730.000 8.13190
4735.000 8.12902
4740.000 8.18264
4745.000 8.28006
4750.000 8.29747
4755.000 8.19918
4760.000 8.08616
4765.000 7.95110
4770.000 7.99937
4775.000 8.24081
4780.000 8.31116
4785.000 8.24718
4790.000 8.22037
4795.000 8.29324
4800.000 8.26353
4805.000 8.21644
4810.000 8.13784
4815.000 8.22503
4820.000 8.30167
4825.000 8.12587
4830.000 8.13373
4835.000 8.11485
4840.000 7.96365
4845.000 7.89341
4850.000 7.61235
4855.000 7.03841
4860.000 6.45231
4865.000 6.63690
4870.000 6.90504
4875.000 7.17042
4880.000 7.51603
4885.000 7.56411
4890.000 7.70501
4895.000 7.99173
4900.000 8.04903
4905.000 7.95321
4910.000 7.77865
4915.000 7.70325
4920.000 7.46315
4925.000 7.55043
4930.000 7.76741
4935.000 7.74979
4940.000 7.80856
4945.000 8.04035
4950.000 8.04368
4955.000 7.90989
4960.000 7.85390
4965.000 7.92678
4970.000 7.90405
4975.000 7.89621
4980.000 7.70648
4985.000 7.51327
4990.000 7.67273
4995.000 7.65654
5000.000 7.44911
5005.000 7.25360
5010.000 7.28958
5015.000 7.23274
5020.000 7.30580
5025.000 7.47189
5030.000 7.59913
5035.000 7.53393
5040.000 7.29298
5045.000 7.39596
5050.000 7.54139
5055.000 7.64496
5060.000 7.80458
5065.000 7.72656
5070.000 7.58056
5075.000 7.48446
5080.000 7.37653
5085.000 7.47350
5090.000 7.67260
5095.000 7.70185
5100.000 7.60635
5105.000 7.63516
5110.000 7.58238
5115.000 7.73213
5120.000 7.70458
5125.000 7.44445
5130.000 7.34532
5135.000 7.30823
5140.000 7.22229
5145.000 7.32920
5150.000 7.36716
5155.000 7.33058
5160.000 7.19681
5165.000 6.69017
5170.000 6.33623
5175.000 6.60054
5180.000 6.78591
5185.000 6.67780
5190.000 6.93952
5195.000 7.06041
5200.000 7.18776
5205.000 7.15465
5210.000 7.24598
5215.000 7.33395
5220.000 7.38655
5225.000 7.18269
5230.000 7.15224
5235.000 7.30145
5240.000 7.49341
5245.000 7.55331
5250.000 7.49008
5255.000 7.46764
5260.000 7.21713
5265.000 6.70588
5270.000 6.58773
5275.000 6.89693
5280.000 7.20360
5285.000 7.36964
5290.000 7.61319
5295.000 7.51315
5300.000 7.45852
5305.000 7.57439
5310.000 7.64262
5315.000 7.59361
5320.000 7.47394
5325.000 7.19767
5330.000 7.03768
5335.000 7.19028
5340.000 7.28882
5345.000 7.43394
5350.000 7.54060
5355.000 7.64492
5360.000 7.53848
5365.000 7.29582
5370.000 7.16320
5375.000 7.31078
5380.000 7.39164
5385.000 7.38389
5390.000 7.30869
5395.000 7.15919
5400.000 7.07039
5405.000 6.93973
5410.000 7.01207
5415.000 7.13840
5420.000 7.20813
5425.000 7.24596
5430.000 7.19304
5435.000 7.17002
5440.000 7.26746
5445.000 7.23339
5450.000 7.31283
5455.000 7.30930
5460.000 7.32607
5465.000 7.23336
5470.000 7.16779
5475.000 7.02801
5480.000 7.00670
5485.000 7.16354
5490.000 7.21592
5495.000 7.22352
5500.000 7.19279
5505.000 7.11926
5510.000 7.09050
5515.000 7.10239
5520.000 7.14206
5525.000 7.07353
5530.000 7.05733
5535.000 7.15460
5540.000 7.19388
5545.000 7.23279
5550.000 7.29007
5555.000 7.24695
5560.000 7.18367
5565.000 7.09946
5570.000 7.02371
5575.000 6.99927
5580.000 7.00218
5585.000 6.86421
5590.000 6.74262
5595.000 6.81593
5600.000 6.84267
5605.000 6.95824
5610.000 7.10839
5615.000 6.97445
5620.000 6.97047
5625.000 7.00478
5630.000 7.04404
5635.000 7.04928
5640.000 7.01382
5645.000 7.00885
5650.000 6.97940
5655.000 6.88009
5660.000 6.80946
5665.000 6.85263
5670.000 6.94517
5675.000 7.01062
5680.000 7.01190
5685.000 6.92003
5690.000 6.84302
5695.000 6.78986
5700.000 6.73004
5705.000 6.68691
5710.000 6.64279
5715.000 6.76090
5720.000 6.93817
5725.000 7.06776
5730.000 7.12628
5735.000 7.13323
5740.000 7.07388
5745.000 6.99120
5750.000 6.87730
5755.000 6.82888
5760.000 6.83119
5765.000 6.86007
5770.000 6.91045
5775.000 6.94731
5780.000 6.84675
5785.000 6.72254
5790.000 6.74888
5795.000 6.81937
5800.000 6.81078
5805.000 6.81573
5810.000 6.88253
5815.000 6.89113
5820.000 6.95094
5825.000 7.00772
5830.000 7.06171
5835.000 7.02962
5840.000 7.03931
5845.000 6.89959
5850.000 6.83656
5855.000 6.75785
5860.000 6.76816
5865.000 6.81985
5870.000 6.83575
5875.000 6.80270
5880.000 6.69461
5885.000 6.43011
5890.000 6.18026
5895.000 6.28191
5900.000 6.57230
5905.000 6.66856
5910.000 6.69979
5915.000 6.70423
5920.000 6.72369
5925.000 6.70654
5930.000 6.64282
5935.000 6.63395
5940.000 6.63393
5945.000 6.60792
5950.000 6.59336
5955.000 6.61549
5960.000 6.63504
5965.000 6.65175
5970.000 6.64743
5975.000 6.59291
5980.000 6.55145
5985.000 6.51735
5990.000 6.57659
5995.000 6.59052
6000.000 6.55356
6005.000 6.50844
6010.000 6.47849
6015.000 6.45123
6020.000 6.41750
6025.000 6.46828
6030.000 6.53797
6035.000 6.58156
6040.000 6.57781
6045.000 6.57647
6050.000 6.55207
6055.000 6.52672
6060.000 6.54777
6065.000 6.54168
6070.000 6.55555
6075.000 6.51619
6080.000 6.46781
6085.000 6.45433
6090.000 6.40837
6095.000 6.36220
6100.000 6.24844
6105.000 6.29934
6110.000 6.39421
6115.000 6.42961
6120.000 6.34020
6125.000 6.32670
6130.000 6.33555
6135.000 6.22496
6140.000 6.23330
6145.000 6.24919
6150.000 6.25926
6155.000 6.19816
6160.000 6.10550
6165.000 6.09231
6170.000 6.14795
6175.000 6.26291
6180.000 6.32473
6185.000 6.33898
6190.000 6.33828
6195.000 6.34219
6200.000 6.38273
6205.000 6.36085
6210.000 6.29569
6215.000 6.23988
6220.000 6.24229
6225.000 6.20148
6230.000 6.17897
6235.000 6.17674
6240.000 6.14081
6245.000 6.11368
6250.000 6.10948
6255.000 6.07073
6260.000 6.11566
6265.000 6.10443
6270.000 6.16821
6275.000 6.04973
6280.000 5.99429
6285.000 6.10086
6290.000 6.13005
6295.000 6.09823
6300.000 6.02406
6305.000 6.07302
6310.000 6.04589
6315.000 5.95647
6320.000 6.02797
6325.000 6.09222
6330.000 6.08489
6335.000 6.02340
6340.000 6.01555
6345.000 6.04394
6350.000 6.03728
6355.000 6.00522
6360.000 5.98060
6365.000 6.02362
6370.000 6.08201
6375.000 6.08545
6380.000 6.05276
6385.000 6.06903
6390.000 6.02345
6395.000 5.95743
6400.000 5.91747
6405.000 5.92078
6410.000 5.86064
6415.000 5.88310
6420.000 5.88656
6425.000 5.94016
6430.000 5.94922
6435.000 5.91829
6440.000 5.93314
6445.000 5.95199
6450.000 5.90651
6455.000 5.89509
6460.000 5.85238
6465.000 5.84021
6470.000 5.84667
6475.000 5.85250
6480.000 5.84208
6485.000 5.80135
6490.000 5.67890
6495.000 5.59737
6500.000 5.74653
6505.000 5.88449
6510.000 5.90895
6515.000 5.85025
6520.000 5.84220
6525.000 5.81556
6530.000 5.77693
6535.000 5.78957
6540.000 5.80451
6545.000 5.70598
6550.000 5.54873
6555.000 5.23334
6560.000 4.73147
6565.000 4.84646
6570.000 5.24445
6575.000 5.50881
6580.000 5.61979
6585.000 5.67273
6590.000 5.66586
6595.000 5.61384
6600.000 5.69431
6605.000 5.72955
6610.000 5.74052
6615.000 5.79393
6620.000 5.76273
6625.000 5.70289
6630.000 5.62495
6635.000 5.58615
6640.000 5.63608
6645.000 5.66171
6650.000 5.72098
6655.000 5.72651
6660.000 5.69798
6665.000 5.69510
6670.000 5.67246
6675.000 5.62514
6680.000 5.66151
6685.000 5.71141
6690.000 5.71039
6695.000 5.64604
6700.000 5.64271
6705.000 5.64223
6710.000 5.61862
6715.000 5.54971
6720.000 5.53598
6725.000 5.58764
6730.000 5.59375
6735.000 5.60259
6740.000 5.58601
6745.000 5.59442
6750.000 5.54434
6755.000 5.55732
6760.000 5.55575
6765.000 5.56129
6770.000 5.55947
6775.000 5.58711
6780.000 5.57913
6785.000 5.56803
6790.000 5.59375
6795.000 5.59132
6800.000 5.59195
6805.000 5.56742
6810.000 5.55399
6815.000 5.54614
6820.000 5.55677
6825.000 5.56335
6830.000 5.56193
6835.000 5.52280
6840.000 5.52511
6845.000 5.49212
6850.000 5.48868
6855.000 5.50845
6860.000 5.53271
6865.000 5.54373
6870.000 5.53341
6875.000 5.50760
6880.000 5.47715
6885.000 5.45370
6890.000 5.44483
6895.000 5.45399
6900.000 5.47560
6905.000 5.49697
6910.000 5.50349
6915.000 5.48835
6920.000 5.45290
6925.000 5.41292
6930.000 5.38459
6935.000 5.37623
6940.000 5.38568
6945.000 5.40241
6950.000 5.41582
6955.000 5.42120
6960.000 5.41699
6965.000 5.40712
6970.000 5.40356
6975.000 5.31686
6980.000 5.29800
6985.000 5.33677
6990.000 5.37793
6995.000 5.38014
7000.000 5.31592
7005.000 5.26994
7010.000 5.26539
7015.000 5.23210
