# Wavelength_[A] F_lambda_[norm]
1150.000 353.04910
1155.000 283.72154
1160.000 240.35530
1165.000 214.59363
1170.000 190.62898
1175.000 193.78193
1180.000 210.27017
1185.000 195.82088
1190.000 139.23533
1195.000 111.78641
1200.000 103.89807
1205.000 89.10391
1210.000 102.13980
1215.000 115.03521
1220.000 73.40822
1225.000 46.34530
1230.000 55.63930
1235.000 98.30786
1240.000 208.75395
1245.000 297.92436
1250.000 266.69820
1255.000 236.53728
1260.000 236.32126
1265.000 257.18907
1270.000 280.54151
1275.000 286.88078
1280.000 290.26985
1285.000 306.36979
1290.000 322.09270
1295.000 322.58717
1300.000 291.87420
1305.000 277.92656
1310.000 308.66293
1315.000 321.24754
1320.000 318.45926
1325.000 324.51585
1330.000 308.99380
1335.000 279.96214
1340.000 286.81276
1345.000 325.45286
1350.000 341.29226
1355.000 334.28174
1360.000 312.61472
1365.000 299.26571
1370.000 296.82774
1375.000 293.35499
1380.000 302.74898
1385.000 260.09273
1390.000 260.22982
1395.000 292.02515
1400.000 343.79699
1405.000 362.71680
1410.000 356.23931
1415.000 348.30066
1420.000 342.14349
1425.000 358.62155
1430.000 353.81362
1435.000 376.75807
1440.000 359.75001
1445.000 344.99546
1450.000 335.65213
1455.000 324.18092
1460.000 330.29720
1465.000 351.13600
1470.000 381.28277
1475.000 394.05135
1480.000 410.76304
1485.000 426.23245
1490.000 440.24565
1495.000 425.14034
1500.000 394.80685
1505.000 407.63467
1510.000 425.63276
1515.000 418.43151
1520.000 417.57231
1525.000 392.60052
1530.000 297.94030
1535.000 148.39565
1540.000 115.28731
1545.000 249.56426
1550.000 478.98297
1555.000 588.80322
1560.000 504.34967
1565.000 425.65450
1570.000 411.96719
1575.000 420.80916
1580.000 415.77070
1585.000 402.26157
1590.000 393.74595
1595.000 386.82296
1600.000 372.88906
1605.000 359.58675
1610.000 343.34195
1615.000 347.30732
1620.000 345.77598
1625.000 348.56166
1630.000 351.86494
1635.000 358.62252
1640.000 366.78636
1645.000 386.44257
1650.000 379.24493
1655.000 343.24156
1660.000 338.04438
1665.000 361.50830
1670.000 354.02169
1675.000 355.94785
1680.000 376.79839
1685.000 379.84011
1690.000 373.29303
1695.000 369.64181
1700.000 361.06133
1705.000 347.58203
1710.000 313.20596
1715.000 292.45172
1720.000 329.63738
1725.000 363.73269
1730.000 365.80553
1735.000 368.91936
1740.000 364.93699
1745.000 360.10073
1750.000 355.12914
1755.000 357.60524
1760.000 357.79447
1765.000 350.68817
1770.000 347.26757
1775.000 352.95608
1780.000 348.85986
1785.000 320.79496
1790.000 281.98460
1795.000 307.34567
1800.000 320.88909
1805.000 310.66485
1810.000 304.73432
1815.000 313.98423
1820.000 315.93556
1825.000 310.07073
1830.000 304.71386
1835.000 300.79867
1840.000 293.53314
1845.000 289.55174
1850.000 279.49604
1855.000 267.57809
1860.000 267.92627
1865.000 271.00331
1870.000 267.05047
1875.000 259.39071
1880.000 257.78084
1885.000 250.99420
1890.000 247.12314
1895.000 244.09330
1900.000 237.50427
1905.000 229.00832
1910.000 226.15466
1915.000 218.64130
1920.000 207.87938
1925.000 202.97657
1930.000 204.53196
1935.000 202.38428
1940.000 198.43071
1945.000 193.56083
1950.000 189.23782
1955.000 182.41611
1960.000 173.97782
1965.000 168.85571
1970.000 163.68285
1975.000 165.72186
1980.000 161.32875
1985.000 157.78141
1990.000 145.91810
1995.000 137.93787
2000.000 146.08476
2005.000 139.60552
2010.000 130.70548
2015.000 131.02020
2020.000 128.69940
2025.000 121.17209
2030.000 118.02180
2035.000 120.24505
2040.000 115.32032
2045.000 111.14454
2050.000 110.17921
2055.000 111.77481
2060.000 98.22356
2065.000 94.44157
2070.000 107.53651
2075.000 100.90518
2080.000 104.43452
2085.000 99.12197
2090.000 91.89661
2095.000 84.36530
2100.000 74.19490
2105.000 75.57411
2110.000 82.44520
2115.000 81.30140
2120.000 74.92616
2125.000 77.98560
2130.000 79.61435
2135.000 68.79796
2140.000 66.61249
2145.000 65.19115
2150.000 63.07536
2155.000 65.51985
2160.000 66.52919
2165.000 63.80733
2170.000 61.26737
2175.000 55.52551
2180.000 50.09242
2185.000 50.14243
2190.000 52.00606
2195.000 57.10502
2200.000 58.95282
2205.000 60.10454
2210.000 56.71260
2215.000 57.67168
2220.000 58.62490
2225.000 61.38479
2230.000 64.81188
2235.000 62.30300
2240.000 62.26251
2245.000 63.67631
2250.000 71.48264
2255.000 78.21959
2260.000 74.06593
2265.000 70.31561
2270.000 77.61101
2275.000 74.58572
2280.000 73.45609
2285.000 75.25088
2290.000 78.80356
2295.000 82.63784
2300.000 82.17812
2305.000 86.96888
2310.000 95.99717
2315.000 97.90075
2320.000 90.47467
2325.000 95.48961
2330.000 105.02166
2335.000 110.23350
2340.000 107.71294
2345.000 107.99840
2350.000 111.65859
2355.000 111.96411
2360.000 113.43463
2365.000 111.98897
2370.000 117.42314
2375.000 120.00380
2380.000 123.34984
2385.000 124.32592
2390.000 120.27060
2395.000 124.71106
2400.000 135.21944
2405.000 132.34070
2410.000 130.96659
2415.000 131.95513
2420.000 134.06244
2425.000 139.73992
2430.000 147.29809
2435.000 145.98300
2440.000 146.25997
2445.000 152.88321
2450.000 151.83017
2455.000 161.68265
2460.000 170.92118
2465.000 171.87760
2470.000 161.73132
2475.000 158.82705
2480.000 159.02866
2485.000 161.67502
2490.000 163.50396
2495.000 158.04575
2500.000 166.06141
2505.000 166.20716
2510.000 164.47489
2515.000 163.61092
2520.000 163.76232
2525.000 168.18918
2530.000 176.90307
2535.000 181.50193
2540.000 178.21710
2545.000 176.56054
2550.000 182.20447
2555.000 179.76850
2560.000 177.79324
2565.000 184.94630
2570.000 187.73475
2575.000 184.83565
2580.000 156.23936
2585.000 142.42288
2590.000 159.43966
2595.000 172.86329
2600.000 173.78324
2605.000 178.35416
2610.000 180.81122
2615.000 190.91081
2620.000 195.70997
2625.000 196.79379
2630.000 196.59729
2635.000 195.98094
2640.000 187.36190
2645.000 188.98002
2650.000 194.87443
2655.000 196.29052
2660.000 193.74941
2665.000 190.70537
2670.000 192.62138
2675.000 193.58080
2680.000 194.05947
2685.000 195.62444
2690.000 200.48973
2695.000 193.77876
2700.000 191.48318
2705.000 194.64687
2710.000 195.48144
2715.000 192.78919
2720.000 192.99311
2725.000 193.45498
2730.000 199.10942
2735.000 200.27231
2740.000 199.55965
2745.000 197.10322
2750.000 201.04452
2755.000 198.61847
2760.000 204.65227
2765.000 210.30758
2770.000 205.87332
2775.000 200.19795
2780.000 200.53611
2785.000 197.83748
2790.000 195.48493
2795.000 186.35390
2800.000 178.47758
2805.000 186.34430
2810.000 202.70900
2815.000 207.29940
2820.000 206.76150
2825.000 200.92490
2830.000 199.56251
2835.000 204.15123
2840.000 208.14137
2845.000 203.83217
2850.000 201.46446
2855.000 197.67396
2860.000 201.72134
2865.000 206.95062
2870.000 206.35101
2875.000 206.51962
2880.000 204.83228
2885.000 206.80047
2890.000 210.51213
2895.000 211.43349
2900.000 209.48701
2905.000 205.38002
2910.000 207.77161
2915.000 209.95531
2920.000 211.82831
2925.000 211.29857
2930.000 209.83311
2935.000 206.53419
2940.000 206.81456
2945.000 210.21079
2950.000 208.90772
2955.000 212.62821
2960.000 214.66745
2965.000 210.34670
2970.000 210.76378
2975.000 211.58289
2980.000 214.27714
2985.000 210.40568
2990.000 210.22825
2995.000 206.70351
3000.000 206.22633
3005.000 205.80633
3010.000 210.80913
3015.000 211.88935
3020.000 207.87323
3025.000 201.39485
3030.000 203.23150
3035.000 205.92433
3040.000 209.63573
3045.000 206.83071
3050.000 205.21104
3055.000 207.78930
3060.000 200.39811
3065.000 197.54619
3070.000 202.31924
3075.000 201.46249
3080.000 210.53554
3085.000 219.17043
3090.000 218.41165
3095.000 214.84806
3100.000 220.25708
3105.000 223.12080
3110.000 220.28486
3115.000 220.32381
3120.000 221.03944
3125.000 227.20538
3130.000 227.48415
3135.000 224.93419
3140.000 226.17401
3145.000 235.23248
3150.000 238.95905
3155.000 237.66991
3160.000 231.58389
3165.000 235.88601
3170.000 239.84746
3175.000 242.60429
3180.000 239.42597
3185.000 232.60686
3190.000 234.91941
3195.000 227.14652
3200.000 210.19401
3205.000 219.97499
3210.000 228.39059
3215.000 222.71220
3220.000 214.34053
3225.000 215.99351
3230.000 221.52913
3235.000 222.33732
3240.000 218.79630
3245.000 213.88732
3250.000 212.01563
3255.000 215.65707
3260.000 218.14603
3265.000 213.42328
3270.000 206.99683
3275.000 204.97725
3280.000 204.31884
3285.000 201.12805
3290.000 197.27643
3295.000 195.08024
3300.000 192.86952
3305.000 189.05827
3310.000 186.38299
3315.000 187.46532
3320.000 190.14577
3325.000 191.43609
3330.000 189.81456
3335.000 185.24485
3340.000 182.16518
3345.000 184.05904
3350.000 186.11588
3355.000 183.54425
3360.000 179.92347
3365.000 179.27463
3370.000 179.01529
3375.000 176.22642
3380.000 173.24559
3385.000 172.67611
3390.000 172.92761
3395.000 171.95982
3400.000 170.12680
3405.000 168.35081
3410.000 167.43300
3415.000 167.83179
3420.000 168.75649
3425.000 169.23779
3430.000 168.84157
3435.000 167.57160
3440.000 166.64827
3445.000 167.05907
3450.000 167.64344
3455.000 167.07999
3460.000 165.55165
3465.000 163.47850
3470.000 160.72417
3475.000 157.38702
3480.000 155.06033
3485.000 155.15089
3490.000 156.82482
3495.000 158.60889
3500.000 158.71314
3505.000 156.17506
3510.000 157.35550
3515.000 158.00200
3520.000 157.89967
3525.000 156.96634
3530.000 155.24422
3535.000 154.55925
3540.000 153.83331
3545.000 152.89949
3550.000 151.89747
3555.000 150.54622
3560.000 149.04329
3565.000 148.06658
3570.000 147.21916
3575.000 144.72414
3580.000 142.89989
3585.000 141.65079
3590.000 141.12800
3595.000 140.93613
3600.000 140.44523
3605.000 139.98903
3610.000 141.09439
3615.000 140.32984
3620.000 139.26757
3625.000 139.45501
3630.000 139.93822
3635.000 140.26608
3640.000 140.22282
3645.000 139.96314
3650.000 139.93630
3655.000 141.58283
3660.000 141.83580
3665.000 140.63556
3670.000 138.85680
3675.000 136.85786
3680.000 135.19641
3685.000 135.19678
3690.000 134.48373
3695.000 133.65167
3700.000 132.58777
3705.000 131.18327
3710.000 131.51627
3715.000 132.55600
3720.000 131.56771
3725.000 129.56543
3730.000 128.79987
3735.000 129.85874
3740.000 131.44858
3745.000 129.63916
3750.000 125.47575
3755.000 123.52156
3760.000 123.64039
3765.000 123.15809
3770.000 121.67168
3775.000 127.04501
3780.000 132.56211
3785.000 131.96282
3790.000 128.22019
3795.000 123.19450
3800.000 124.02518
3805.000 129.61898
3810.000 132.46735
3815.000 132.84140
3820.000 131.42468
3825.000 128.76790
3830.000 122.33627
3835.000 117.70857
3840.000 122.56723
3845.000 127.10742
3850.000 127.79059
3855.000 126.57863
3860.000 126.04364
3865.000 124.92961
3870.000 124.15232
3875.000 122.87323
3880.000 117.76678
3885.000 109.58080
3890.000 108.83454
3895.000 116.35821
3900.000 121.42780
3905.000 122.04995
3910.000 120.60492
3915.000 118.42057
3920.000 116.51716
3925.000 115.40537
3930.000 113.64930
3935.000 113.73340
3940.000 116.18898
3945.000 116.67556
3950.000 116.02686
3955.000 113.82168
3960.000 108.22753
3965.000 99.32912
3970.000 95.74721
3975.000 103.30049
3980.000 108.77587
3985.000 109.58495
3990.000 108.40445
3995.000 107.57246
4000.000 106.89738
4005.000 106.18144
4010.000 105.32164
4015.000 104.06376
4020.000 101.60095
4025.000 99.16652
4030.000 99.68985
4035.000 100.76998
4040.000 101.95125
4045.000 102.53634
4050.000 102.75618
4055.000 101.83522
4060.000 101.35241
4065.000 100.67951
4070.000 99.25091
4075.000 98.86103
4080.000 98.29334
4085.000 96.65579
4090.000 94.14380
4095.000 88.35264
4100.000 82.78570
4105.000 86.62364
4110.000 92.70674
4115.000 94.57654
4120.000 94.83622
4125.000 94.62061
4130.000 94.42860
4135.000 93.81425
4140.000 93.13057
4145.000 92.72715
4150.000 92.33567
4155.000 92.28909
4160.000 91.84131
4165.000 91.23728
4170.000 90.75401
4175.000 90.45969
4180.000 90.15603
4185.000 89.30586
4190.000 87.49770
4195.000 85.04661
4200.000 83.61427
4205.000 85.11757
4210.000 86.10996
4215.000 85.96013
4220.000 85.80685
4225.000 85.60021
4230.000 85.28074
4235.000 84.44029
4240.000 83.80353
4245.000 83.75252
4250.000 83.68174
4255.000 82.96968
4260.000 82.06721
4265.000 81.37130
4270.000 81.17426
4275.000 80.95633
4280.000 80.58795
4285.000 80.22867
4290.000 79.78201
4295.000 79.70297
4300.000 79.57329
4305.000 79.30660
4310.000 79.38971
4315.000 79.10362
4320.000 78.45298
4325.000 77.56588
4330.000 74.58535
4335.000 69.07356
4340.000 65.84743
4345.000 69.80273
4350.000 74.00949
4355.000 75.82582
4360.000 76.09702
4365.000 75.80833
4370.000 75.39691
4375.000 74.96262
4380.000 74.24328
4385.000 73.64936
4390.000 73.87160
4395.000 73.79247
4400.000 73.18952
4405.000 72.52948
4410.000 71.74189
4415.000 70.41228
4420.000 69.07790
4425.000 67.89244
4430.000 66.88726
4435.000 67.17872
4440.000 68.15643
4445.000 68.87515
4450.000 69.50964
4455.000 69.69445
4460.000 68.97065
4465.000 67.90818
4470.000 66.41660
4475.000 66.68957
4480.000 67.12094
4485.000 67.05255
4490.000 66.87092
4495.000 66.71394
4500.000 66.55517
4505.000 65.99500
4510.000 65.66485
4515.000 65.29909
4520.000 65.16352
4525.000 64.62481
4530.000 63.81499
4535.000 62.07236
4540.000 60.25837
4545.000 61.47530
4550.000 62.72249
4555.000 63.07393
4560.000 63.13023
4565.000 62.78390
4570.000 62.33290
4575.000 62.00546
4580.000 62.06610
4585.000 61.68697
4590.000 60.99454
4595.000 60.68074
4600.000 60.47507
4605.000 60.25168
4610.000 60.38956
4615.000 60.40308
4620.000 60.08556
4625.000 59.56717
4630.000 59.53519
4635.000 59.51682
4640.000 59.67116
4645.000 59.26751
4650.000 58.63207
4655.000 58.23722
4660.000 58.41174
4665.000 58.29769
4670.000 57.69717
4675.000 56.97274
4680.000 54.75555
4685.000 53.14631
4690.000 54.72603
4695.000 56.11860
4700.000 55.96236
4705.000 55.70834
4710.000 54.79330
4715.000 54.29049
4720.000 54.00154
4725.000 53.47467
4730.000 53.57849
4735.000 53.41311
4740.000 53.29252
4745.000 53.23828
4750.000 52.81145
4755.000 52.14717
4760.000 51.54577
4765.000 51.44798
4770.000 51.69388
4775.000 51.39462
4780.000 51.00326
4785.000 50.98825
4790.000 50.87120
4795.000 50.49121
4800.000 50.13880
4805.000 50.01492
4810.000 49.87658
4815.000 49.66202
4820.000 49.55074
4825.000 49.39922
4830.000 49.37273
4835.000 49.25265
4840.000 49.13860
4845.000 48.43069
4850.000 46.72300
4855.000 42.90858
4860.000 39.49610
4865.000 41.66416
4870.000 44.91221
4875.000 45.87835
4880.000 46.03221
4885.000 46.18418
4890.000 46.29092
4895.000 46.24565
4900.000 46.17752
4905.000 46.32829
4910.000 46.27894
4915.000 46.05135
4920.000 45.36322
4925.000 45.56794
4930.000 45.95708
4935.000 45.74961
4940.000 45.36516
4945.000 45.23119
4950.000 45.16432
4955.000 45.01543
4960.000 44.95588
4965.000 44.60924
4970.000 44.12834
4975.000 43.88829
4980.000 43.51793
4985.000 43.73026
4990.000 43.69528
4995.000 43.57806
5000.000 43.47487
5005.000 43.06693
5010.000 42.53442
5015.000 42.01606
5020.000 42.02715
5025.000 41.96937
5030.000 41.72732
5035.000 41.68319
5040.000 41.60049
5045.000 41.42083
5050.000 41.24122
5055.000 41.16275
5060.000 41.01523
5065.000 40.93904
5070.000 40.93299
5075.000 40.91367
5080.000 40.82382
5085.000 40.65933
5090.000 40.49467
5095.000 40.19781
5100.000 40.17458
5105.000 39.84171
5110.000 39.53696
5115.000 39.41883
5120.000 39.26148
5125.000 39.18749
5130.000 39.15949
5135.000 39.02846
5140.000 38.90870
5145.000 38.75475
5150.000 38.55897
5155.000 38.41231
5160.000 38.31261
5165.000 38.11397
5170.000 37.96434
5175.000 37.97148
5180.000 37.81273
5185.000 37.60552
5190.000 37.37422
5195.000 37.38556
5200.000 37.11208
5205.000 36.79159
5210.000 36.86743
5215.000 36.82051
5220.000 36.58986
5225.000 36.37973
5230.000 36.16666
5235.000 36.02729
5240.000 35.87457
5245.000 35.87237
5250.000 35.59540
5255.000 35.70177
5260.000 35.67108
5265.000 35.32009
5270.000 35.08696
5275.000 35.07124
5280.000 34.89524
5285.000 34.85191
5290.000 34.64719
5295.000 34.40328
5300.000 34.22113
5305.000 34.23385
5310.000 34.12831
5315.000 34.14634
5320.000 34.06530
5325.000 33.86137
5330.000 33.59143
5335.000 33.49073
5340.000 33.30132
5345.000 33.26722
5350.000 33.28666
5355.000 33.24262
5360.000 32.91836
5365.000 32.76650
5370.000 32.67848
5375.000 32.58526
5380.000 32.53011
5385.000 32.36053
5390.000 32.42388
5395.000 32.23842
5400.000 31.67762
5405.000 30.47727
5410.000 29.17846
5415.000 29.83568
5420.000 31.03524
5425.000 31.29969
5430.000 31.29549
5435.000 31.14326
5440.000 31.05095
5445.000 30.79267
5450.000 30.65976
5455.000 30.51227
5460.000 30.52202
5465.000 30.38788
5470.000 30.46512
5475.000 30.39394
5480.000 30.07464
5485.000 29.74149
5490.000 29.66145
5495.000 29.95628
5500.000 29.94099
5505.000 29.63350
5510.000 29.48927
5515.000 29.50341
5520.000 29.36773
5525.000 29.13571
5530.000 29.03215
5535.000 28.80936
5540.000 28.77530
5545.000 28.75732
5550.000 28.72977
5555.000 28.64221
5560.000 28.61484
5565.000 28.54662
5570.000 28.39616
5575.000 28.39708
5580.000 28.26048
5585.000 27.92653
5590.000 27.61301
5595.000 27.57289
5600.000 27.72134
5605.000 27.66116
5610.000 27.52002
5615.000 27.36759
5620.000 27.33824
5625.000 27.26031
5630.000 27.17032
5635.000 27.10105
5640.000 27.00574
5645.000 26.91198
5650.000 26.85691
5655.000 26.74792
5660.000 26.62412
5665.000 26.50587
5670.000 26.34335
5675.000 26.17798
5680.000 26.16298
5685.000 26.21933
5690.000 26.22939
5695.000 26.32015
5700.000 26.01998
5705.000 25.50542
5710.000 25.65619
5715.000 25.66462
5720.000 25.42631
5725.000 25.28426
5730.000 25.21879
5735.000 25.08607
5740.000 24.95168
5745.000 24.86229
5750.000 24.81671
5755.000 24.74349
5760.000 24.72212
5765.000 24.53982
5770.000 24.28591
5775.000 23.86815
5780.000 23.28932
5785.000 23.61898
5790.000 23.86380
5795.000 23.32152
5800.000 22.95565
5805.000 23.14294
5810.000 23.12937
5815.000 23.33704
5820.000 23.70443
5825.000 23.77618
5830.000 23.70914
5835.000 23.59469
5840.000 23.53076
5845.000 23.34987
5850.000 23.22973
5855.000 23.13374
5860.000 23.15034
5865.000 23.10105
5870.000 22.39791
5875.000 21.62935
5880.000 22.18347
5885.000 21.52899
5890.000 19.86349
5895.000 20.17398
5900.000 21.58180
5905.000 22.45212
5910.000 22.37696
5915.000 22.34427
5920.000 22.10471
5925.000 22.02358
5930.000 22.04338
5935.000 21.95819
5940.000 21.83217
5945.000 21.64982
5950.000 21.52805
5955.000 21.55414
5960.000 21.44577
5965.000 21.43594
5970.000 21.24699
5975.000 21.26545
5980.000 21.22599
5985.000 21.09088
5990.000 21.14446
5995.000 21.19435
6000.000 21.02666
6005.000 20.88006
6010.000 20.74864
6015.000 20.72537
6020.000 20.73900
6025.000 20.75769
6030.000 20.76172
6035.000 20.45846
6040.000 20.33290
6045.000 20.45789
6050.000 20.32984
6055.000 20.34287
6060.000 20.24253
6065.000 20.09130
6070.000 20.02083
6075.000 19.97171
6080.000 19.95210
6085.000 19.92870
6090.000 19.94047
6095.000 19.88080
6100.000 19.77978
6105.000 19.66602
6110.000 19.60809
6115.000 19.61344
6120.000 19.36590
6125.000 19.48195
6130.000 19.44929
6135.000 19.36507
6140.000 19.36702
6145.000 19.25156
6150.000 19.23473
6155.000 19.13183
6160.000 19.01755
6165.000 18.74041
6170.000 18.55900
6175.000 18.58477
6180.000 18.62504
6185.000 18.68308
6190.000 18.66356
6195.000 18.64967
6200.000 18.50887
6205.000 18.38753
6210.000 18.50633
6215.000 18.48704
6220.000 18.47570
6225.000 18.32735
6230.000 18.16360
6235.000 18.13777
6240.000 18.17418
6245.000 18.27503
6250.000 18.29129
6255.000 18.20275
6260.000 18.20015
6265.000 17.92607
6270.000 17.76075
6275.000 17.31878
6280.000 16.58060
6285.000 16.78061
6290.000 17.34318
6295.000 17.46738
6300.000 17.41431
6305.000 17.19955
6310.000 16.97442
6315.000 16.98837
6320.000 17.19212
6325.000 17.35784
6330.000 17.29177
6335.000 17.29900
6340.000 17.23433
6345.000 17.14880
6350.000 17.08096
6355.000 16.97588
6360.000 16.92810
6365.000 16.85937
6370.000 16.81976
6375.000 16.70746
6380.000 16.60572
6385.000 16.64607
6390.000 16.64470
6395.000 16.55331
6400.000 16.32469
6405.000 16.23736
6410.000 16.22536
6415.000 16.29943
6420.000 16.38448
6425.000 16.42077
6430.000 16.38199
6435.000 16.30983
6440.000 16.22659
6445.000 16.14557
6450.000 16.06933
6455.000 15.99100
6460.000 15.96634
6465.000 15.95010
6470.000 15.89978
6475.000 15.87326
6480.000 15.89841
6485.000 15.77778
6490.000 15.71383
6495.000 15.74561
6500.000 15.79364
6505.000 15.78324
6510.000 15.74538
6515.000 15.55517
6520.000 15.37416
6525.000 15.14291
6530.000 15.11574
6535.000 15.30163
6540.000 15.39211
6545.000 15.28451
